File: rawdata/buffer_heating3
H2O_H2O
Furnace temperature 	Time	HeatFlow
/°C	/s	/mW
8.23399	0.000000000	0.110581
7.76524	25.5	0.110587
7.09503	51	0.134445
6.34609	76.5	0.253969
5.88642	102	0.397764
5.6901	127.5	0.460944
5.65739	153	0.444735
5.41697	178.5	0.386472
5.08115	204	0.312802
5.0196	229.5	0.238214
5.21082	255	0.172225
5.49531	280.5	0.115007
5.80165	306	0.0681836
6.10873	331.5	0.0303331
6.40977	357	0.001390523
6.69765	382.5	-0.0206606
6.97681	408	-0.0387549
7.24291	433.5	-0.0513333
7.49918	459	-0.0617038
7.74681	484.5	-0.0681242
7.98871	510	-0.0716464
8.2245	535.5	-0.0744019
8.4568	561	-0.0763526
8.68541	586.5	-0.0783009
8.91113	612	-0.0785864
9.1353	637.5	-0.0787118
9.36018	663	-0.0787574
9.58325	688.5	-0.078284
9.80482	714	-0.0773724
10.0249	739.5	-0.0777983
10.2444	765	-0.0776259
10.463	790.5	-0.0773744
10.6812	816	-0.0764665
10.8975	841.5	-0.0780655
11.115	867	-0.0770794
11.3316	892.5	-0.0772861
11.5484	918	-0.077691
11.7647	943.5	-0.0774808
11.9803	969	-0.0785987
12.1963	994.5	-0.07821
12.4124	1020	-0.0781388
12.6285	1045.5	-0.0783251
12.8437	1071	-0.0791237
13.0595	1096.5	-0.0794868
13.2749	1122	-0.0794154
13.4901	1147.5	-0.079423
13.7062	1173	-0.0808897
13.9217	1198.5	-0.080877
14.1375	1224	-0.0812779
14.3524	1249.5	-0.0819537
14.5676	1275	-0.0820979
14.7836	1300.5	-0.0826941
14.9988	1326	-0.0832703
15.2143	1351.5	-0.0838455
15.4295	1377	-0.0844398
15.6446	1402.5	-0.0853668
15.8599	1428	-0.0855284
16.0753	1453.5	-0.0860427
16.291	1479	-0.0863021
16.5063	1504.5	-0.0871284
16.7212	1530	-0.0874456
16.9364	1555.5	-0.0884852
17.1511	1581	-0.0884305
17.3673	1606.5	-0.089371
17.5827	1632	-0.0896476
17.7983	1657.5	-0.0902554
18.0132	1683	-0.0904729
18.228	1708.5	-0.0906321
18.4432	1734	-0.0909661
18.6584	1759.5	-0.0932434
18.8739	1785	-0.0922357
19.0895	1810.5	-0.0931898
19.3048	1836	-0.0936969
19.5195	1861.5	-0.0941064
19.7347	1887	-0.0953874
19.9497	1912.5	-0.0955246
20.1649	1938	-0.0956813
20.3807	1963.5	-0.0962441
20.596	1989	-0.0975798
20.8107	2014.5	-0.0980252
21.0256	2040	-0.0991072
21.2408	2065.5	-0.0988375
21.4561	2091	-0.0997062
21.6714	2116.5	-0.100921
21.8865	2142	-0.100998
22.1022	2167.5	-0.102173
22.317	2193	-0.102923
22.5316	2218.5	-0.10423
22.7471	2244	-0.104401
22.9625	2269.5	-0.104804
23.1782	2295	-0.105071
23.3935	2320.5	-0.106797
23.6085	2346	-0.10737
23.8229	2371.5	-0.107387
24.0382	2397	-0.108477
24.2536	2422.5	-0.109605
24.4688	2448	-0.11075
24.6842	2473.5	-0.109465
24.8987	2499	-0.112196
25.1137	2524.5	-0.11162
25.3289	2550	-0.113793
25.5444	2575.5	-0.114228
25.7599	2601	-0.114854
25.9747	2626.5	-0.114964
26.1894	2652	-0.115436
26.4046	2677.5	-0.117431
26.6199	2703	-0.118131
26.8355	2728.5	-0.117897
27.0506	2754	-0.119204
27.2659	2779.5	-0.118762
27.4808	2805	-0.119897
27.6966	2830.5	-0.120082
27.9115	2856	-0.12186
28.1266	2881.5	-0.122309
28.3409	2907	-0.122171
28.5557	2932.5	-0.124344
28.7711	2958	-0.123164
28.9868	2983.5	-0.125184
29.2022	3009	-0.12635
29.4167	3034.5	-0.12657
29.6316	3060	-0.127206
29.8471	3085.5	-0.127917
30.0621	3111	-0.12927
30.2773	3136.5	-0.12981
30.4923	3162	-0.130369
30.7068	3187.5	-0.131813
30.9223	3213	-0.131523
31.1379	3238.5	-0.13242
31.3528	3264	-0.133598
31.5683	3289.5	-0.133666
31.7836	3315	-0.134599
31.9981	3340.5	-0.134704
32.2134	3366	-0.135636
32.4286	3391.5	-0.134389
32.6442	3417	-0.135415
32.8589	3442.5	-0.136158
33.0737	3468	-0.136395
33.2885	3493.5	-0.138525
33.504	3519	-0.138949
33.7196	3544.5	-0.13896
33.9345	3570	-0.139739
34.1493	3595.5	-0.140424
34.3641	3621	-0.140024
34.5792	3646.5	-0.141755
34.7944	3672	-0.141019
35.0099	3697.5	-0.142488
35.2254	3723	-0.141847
35.4401	3748.5	-0.142661
35.6543	3774	-0.144221
35.8697	3799.5	-0.145631
36.0856	3825	-0.145344
36.3006	3850.5	-0.145859
36.5157	3876	-0.145927
36.7302	3901.5	-0.146088
36.9454	3927	-0.148128
37.16	3952.5	-0.147378
37.3761	3978	-0.148896
37.5912	4003.5	-0.148611
37.8064	4029	-0.149329
38.0206	4054.5	-0.149471
38.2353	4080	-0.150783
38.4505	4105.5	-0.151278
38.6665	4131	-0.151439
38.8813	4156.5	-0.152249
39.0962	4182	-0.152595
39.3109	4207.5	-0.152831
39.5263	4233	-0.153233
39.7421	4258.5	-0.153265
39.9571	4284	-0.154111
40.172	4309.5	-0.154439
40.386	4335	-0.154194
40.6016	4360.5	-0.155539
40.8166	4386	-0.153559
41.0319	4411.5	-0.156232
41.2472	4437	-0.156653
41.4617	4462.5	-0.156926
41.6768	4488	-0.157181
41.8925	4513.5	-0.158228
42.1079	4539	-0.159202
42.3228	4564.5	-0.158001
42.5373	4590	-0.158441
42.7519	4615.5	-0.15888
42.967	4641	-0.158529
43.1826	4666.5	-0.159576
43.3987	4692	-0.1611
43.6133	4717.5	-0.160106
43.828	4743	-0.160785
44.0428	4768.5	-0.160104
44.2581	4794	-0.162068
44.4734	4819.5	-0.16115
44.6885	4845	-0.16071
44.9035	4870.5	-0.161976
45.1186	4896	-0.157647
45.333	4921.5	-0.160344
45.548	4947	-0.163462
45.7634	4972.5	-0.165992
45.9788	4998	-0.165571
46.1944	5023.5	-0.165426
46.4208	5049	-0.164494
46.631	5074.5	-0.163929
46.8445	5100	-0.163859
47.056	5125.5	-0.163186
47.2672	5151	-0.163098
47.4827	5176.5	-0.162901
47.6972	5202	-0.16391
47.9128	5227.5	-0.164262
48.128	5253	-0.162551
48.3429	5278.5	-0.161387
48.5594	5304	-0.162343
48.7746	5329.5	-0.167348
48.9894	5355	-0.166242
49.2041	5380.5	-0.165209
49.4201	5406	-0.16188
49.6391	5431.5	-0.16238
49.8512	5457	-0.163955
50.0632	5482.5	-0.165402
50.2788	5508	-0.16632
50.4945	5533.5	-0.166038
50.7148	5559	-0.165993
50.9308	5584.5	-0.167312
51.1446	5610	-0.168541
51.3595	5635.5	-0.165332
51.5746	5661	-0.161708
51.7897	5686.5	-0.163828
52.0032	5712	-0.165438
52.2159	5737.5	-0.16625
52.4247	5763	-0.167043
52.6417	5788.5	-0.166203
52.8627	5814	-0.165835
53.0776	5839.5	-0.164415
53.2892	5865	-0.163468
53.5035	5890.5	-0.163174
53.7168	5916	-0.163226
53.9327	5941.5	-0.163441
54.1479	5967	-0.165106
54.3642	5992.5	-0.1634
54.5796	6018	-0.164304
54.7945	6043.5	-0.165245
55.0114	6069	-0.166186
55.2293	6094.5	-0.165751
55.4431	6120	-0.165696
55.6576	6145.5	-0.167759
55.8766	6171	-0.167326
56.0912	6196.5	-0.163547
56.3053	6222	-0.167238
56.5191	6247.5	-0.165034
56.7358	6273	-0.163283
56.9461	6298.5	-0.161407
57.1618	6324	-0.165096
57.3856	6349.5	-0.167195
57.5896	6375	-0.164183
57.8062	6400.5	-0.164152
58.0242	6426	-0.16385
58.2419	6451.5	-0.164343
58.4552	6477	-0.164746
58.6671	6502.5	-0.164644
58.8848	6528	-0.164633
59.1005	6553.5	-0.164496
59.3147	6579	-0.1649
59.5302	6604.5	-0.163574
59.745	6630	-0.163403
59.9609	6655.5	-0.16397
60.1749	6681	-0.163169
60.3892	6706.5	-0.166404
60.604	6732	-0.16454
60.8197	6757.5	-0.163596
61.0342	6783	-0.163463
61.2496	6808.5	-0.158757
61.4644	6834	-0.162406
61.678	6859.5	-0.163499
61.8944	6885	-0.165329
62.1098	6910.5	-0.16707
62.3252	6936	-0.167173
62.5522	6961.5	-0.165064
62.7642	6987	-0.165079
62.9772	7012.5	-0.165003
63.1911	7038	-0.164228
63.4048	7063.5	-0.164297
63.6192	7089	-0.163972
63.8328	7114.5	-0.16309
64.0467	7140	-0.162424
64.2612	7165.5	-0.16095
64.4759	7191	-0.159603
64.5522	7200	-0.161663