File: rawdata/buffer_cooling2
H2O_H2O
Furnace temperature 	Time	HeatFlow
/°C	/s	/mW
64.9329	0.000000000	-0.160205
66.8671	10.5	-0.177496
67.9287	21	-0.279448
67.8617	31.5	-0.399979
67.8646	42	-0.505085
67.7581	52.5	-0.590547
67.6339	63	-0.650396
67.486	73.5	-0.685681
67.3234	84	-0.695801
67.1503	94.5	-0.684685
66.9686	105	-0.657415
66.7814	115.5	-0.622261
66.5882	126	-0.588826
66.3918	136.5	-0.558532
66.1922	147	-0.52645
65.9901	157.5	-0.494162
65.9011	168	-0.455115
65.6919	178.5	-0.412762
65.5059	189	-0.366418
65.3085	199.5	-0.316782
65.0998	210	-0.26659
64.893	220.5	-0.213483
64.6779	231	-0.161549
64.466	241.5	-0.115779
64.2483	252	-0.0780524
64.0332	262.5	-0.0369775
63.8143	273	0.001460604
63.5968	283.5	0.0341409
63.379	294	0.0621067
63.1603	304.5	0.0904254
62.9425	315	0.115218
62.7239	325.5	0.139496
62.5067	336	0.157213
62.2883	346.5	0.176219
62.0708	357	0.191928
61.8533	367.5	0.208745
61.6368	378	0.219445
61.419	388.5	0.234378
61.2022	399	0.242523
60.9851	409.5	0.250399
60.7696	420	0.257394
60.5524	430.5	0.266418
60.3377	441	0.275736
60.1217	451.5	0.276555
59.9059	462	0.289933
59.6905	472.5	0.293002
59.4757	483	0.298389
59.26	493.5	0.303435
59.0457	504	0.304048
58.8309	514.5	0.306653
58.616	525	0.309008
58.4025	535.5	0.310185
58.1874	546	0.309207
57.9734	556.5	0.311548
57.7596	567	0.31068
57.5461	577.5	0.312388
57.3324	588	0.313807
57.1179	598.5	0.315047
56.904	609	0.314236
56.6915	619.5	0.311828
56.4768	630	0.31861
56.2641	640.5	0.314223
56.0502	651	0.315068
55.8375	661.5	0.318314
55.6242	672	0.314816
55.4106	682.5	0.311935
55.1972	693	0.312384
54.9849	703.5	0.312214
54.7706	714	0.309314
54.5591	724.5	0.308672
54.3449	735	0.308994
54.1336	745.5	0.303962
53.9194	756	0.30875
53.707	766.5	0.307982
53.4938	777	0.307104
53.2815	787.5	0.300664
53.0684	798	0.304328
52.8554	808.5	0.299472
52.643	819	0.299452
52.4304	829.5	0.297789
52.2175	840	0.291979
52.0043	850.5	0.294736
51.7918	861	0.292341
51.5793	871.5	0.293419
51.3672	882	0.294626
51.1537	892.5	0.290658
50.9411	903	0.29139
50.7282	913.5	0.288371
50.5159	924	0.291101
50.3037	934.5	0.285058
50.0898	945	0.287864
49.8778	955.5	0.28607
49.666	966	0.2871
49.4525	976.5	0.281784
49.2406	987	0.281677
49.0266	997.5	0.278651
48.8158	1008	0.276506
48.6014	1018.5	0.279448
48.39	1029	0.277578
48.1759	1039.5	0.275377
47.9638	1050	0.274315
47.7509	1060.5	0.270825
47.5388	1071	0.271749
47.3267	1081.5	0.270373
47.1132	1092	0.272864
46.9009	1102.5	0.270291
46.6888	1113	0.267957
46.4766	1123.5	0.270322
46.2639	1134	0.268024
46.0517	1144.5	0.26674
45.8386	1155	0.265934
45.6259	1165.5	0.262582
45.413	1176	0.262349
45.2017	1186.5	0.259954
44.9875	1197	0.259332
44.7761	1207.5	0.25664
44.5626	1218	0.255796
44.3507	1228.5	0.255691
44.138	1239	0.253496
43.9249	1249.5	0.255021
43.7137	1260	0.253325
43.5008	1270.5	0.254444
43.2881	1281	0.251172
43.0755	1291.5	0.249696
42.863	1302	0.248739
42.6504	1312.5	0.247819
42.4378	1323	0.246509
42.2253	1333.5	0.247111
42.0139	1344	0.243887
41.8007	1354.5	0.242184
41.5873	1365	0.242789
41.3754	1375.5	0.240805
41.1636	1386	0.236961
40.9498	1396.5	0.235032
40.7377	1407	0.234368
40.5247	1417.5	0.232511
40.3134	1428	0.230597
40.1006	1438.5	0.233346
39.8885	1449	0.231431
39.6753	1459.5	0.228601
39.4634	1470	0.230214
39.2504	1480.5	0.227699
39.0384	1491	0.226267
38.8256	1501.5	0.227658
38.6132	1512	0.228789
38.3996	1522.5	0.228124
38.1866	1533	0.224912
37.9742	1543.5	0.22402
37.7586	1554	0.222172
37.5462	1564.5	0.21796
37.3336	1575	0.214588
37.122	1585.5	0.215233
36.9084	1596	0.214299
36.6976	1606.5	0.213816
36.4826	1617	0.214631
36.272	1627.5	0.212945
36.0584	1638	0.209922
35.8462	1648.5	0.208064
35.6338	1659	0.210065
35.4227	1669.5	0.206302
35.2099	1680	0.205138
34.9976	1690.5	0.203446
34.7846	1701	0.204525
34.5742	1711.5	0.203436
34.3619	1722	0.20106
34.1486	1732.5	0.201707
33.9364	1743	0.199651
33.7233	1753.5	0.198766
33.5121	1764	0.198827
33.2997	1774.5	0.200025
33.0866	1785	0.196241
32.8749	1795.5	0.195866
32.6625	1806	0.195718
32.4494	1816.5	0.191719
32.238	1827	0.191096
32.0266	1837.5	0.18956
31.814	1848	0.189429
31.601	1858.5	0.186694
31.3885	1869	0.187742
31.1765	1879.5	0.185669
30.965	1890	0.187213
30.7511	1900.5	0.184473
30.5392	1911	0.183464
30.3274	1921.5	0.182969
30.1158	1932	0.181959
29.9032	1942.5	0.182629
29.6899	1953	0.183529
29.4769	1963.5	0.180397
29.2656	1974	0.177778
29.0523	1984.5	0.177205
28.8406	1995	0.17596
28.6282	2005.5	0.176726
28.4163	2016	0.176478
28.2041	2026.5	0.174715
27.9925	2037	0.17176
27.7803	2047.5	0.172238
27.567	2058	0.171661
27.3556	2068.5	0.170949
27.143	2079	0.169506
26.9308	2089.5	0.166253
26.7188	2100	0.16575
26.5065	2110.5	0.165419
26.2943	2121	0.164144
26.0811	2131.5	0.163293
25.8699	2142	0.162883
25.657	2152.5	0.160602
25.4449	2163	0.16166
25.2329	2173.5	0.159201
25.0202	2184	0.15734
24.8073	2194.5	0.154432
24.597	2205	0.155199
24.3843	2215.5	0.151976
24.1723	2226	0.150011
23.9603	2236.5	0.149031
23.7474	2247	0.150458
23.5347	2257.5	0.148644
23.3241	2268	0.148615
23.1121	2278.5	0.146177
22.8991	2289	0.142995
22.6881	2299.5	0.143723
22.4752	2310	0.143303
22.2636	2320.5	0.145494
22.0514	2331	0.143046
21.8395	2341.5	0.14085
21.6276	2352	0.141345
21.4151	2362.5	0.139516
21.2038	2373	0.138468
20.9916	2383.5	0.139394
20.78	2394	0.135722
20.5685	2404.5	0.137548
20.3552	2415	0.135124
20.1442	2425.5	0.134247
19.9307	2436	0.135841
19.7191	2446.5	0.133216
19.5063	2457	0.13214
19.295	2467.5	0.131221
19.0837	2478	0.127645
18.8715	2488.5	0.131759
18.659	2499	0.129932
18.448	2509.5	0.130112
18.2362	2520	0.126113
18.0238	2530.5	0.128818
17.8122	2541	0.125089
17.6005	2551.5	0.125623
17.389	2562	0.12517
17.1776	2572.5	0.120186
16.9664	2583	0.121036
16.7539	2593.5	0.119926
16.5419	2604	0.120102
16.3312	2614.5	0.119327
16.1195	2625	0.117836
15.9072	2635.5	0.115233
15.6965	2646	0.115327
15.4854	2656.5	0.113753
15.275	2667	0.115279
15.0641	2677.5	0.113444
14.8526	2688	0.112143
14.6409	2698.5	0.114131
14.431	2709	0.110277
14.2185	2719.5	0.108653
14.0085	2730	0.106607
13.7971	2740.5	0.108077
13.5854	2751	0.105889
13.3758	2761.5	0.10724
13.1652	2772	0.102645
12.9549	2782.5	0.103275
12.744	2793	0.102361
12.5337	2803.5	0.0997802
12.3233	2814	0.0999667
12.1132	2824.5	0.0997325
11.9033	2835	0.0979688
11.6927	2845.5	0.0966256
11.4835	2856	0.0957634
11.2726	2866.5	0.094699
11.0639	2877	0.0943182
10.8542	2887.5	0.0933518
10.6457	2898	0.0952693
10.4363	2908.5	0.0942
10.2285	2919	0.0950484
10.0211	2929.5	0.0961607
9.81202	2940	0.0989331
9.60433	2950.5	0.100675
9.39702	2961	0.102032
9.19155	2971.5	0.106045
8.98508	2982	0.109211
8.7794	2992.5	0.10899
8.64349	2999.5	0.109782