File: rawdata/buffer_heating1
H2O_H2O
Furnace temperature 	Time	HeatFlow
/°C	/s	/mW
7.77207	0.000000000	0.0118586
6.10646	25.5	0.0747725
5.34037	51	0.223148
5.0723	76.5	0.28518
5.02177	102	0.260898
5.0849	127.5	0.200398
5.21169	153	0.137546
5.11096	178.5	0.0832716
5.17525	204	0.0407706
5.36127	229.5	0.0105988
5.59493	255	-0.0135815
5.84456	280.5	-0.0319479
6.10239	306	-0.0424568
6.35931	331.5	-0.0515789
6.61428	357	-0.0575247
6.8672	382.5	-0.0619321
7.11209	408	-0.0656896
7.35167	433.5	-0.0698843
7.58743	459	-0.0734908
7.81968	484.5	-0.0747234
8.04885	510	-0.0758947
8.27477	535.5	-0.0774053
8.49966	561	-0.0766501
8.72183	586.5	-0.0781782
8.94264	612	-0.0780642
9.16245	637.5	-0.0778704
9.38187	663	-0.0785163
9.60094	688.5	-0.0775043
9.81858	714	-0.0783094
10.0363	739.5	-0.0778772
10.2527	765	-0.0778045
10.4693	790.5	-0.0798625
10.6867	816	-0.0784757
10.9033	841.5	-0.079119
11.119	867	-0.079841
11.335	892.5	-0.0790925
11.5509	918	-0.0795557
11.7672	943.5	-0.0799788
11.983	969	-0.0812538
12.1994	994.5	-0.0811409
12.4145	1020	-0.0813844
12.63	1045.5	-0.0810342
12.8451	1071	-0.0816136
13.0609	1096.5	-0.0833579
13.2769	1122	-0.0827906
13.493	1147.5	-0.0840784
13.708	1173	-0.0846549
13.9235	1198.5	-0.0844426
14.1386	1224	-0.0852939
14.3543	1249.5	-0.085377
14.5698	1275	-0.0860108
14.7853	1300.5	-0.0866636
15.0007	1326	-0.0856659
15.2156	1351.5	-0.0863966
15.4301	1377	-0.0870677
15.6456	1402.5	-0.0873266
15.8615	1428	-0.0875851
16.077	1453.5	-0.0888421
16.2923	1479	-0.0894911
16.507	1504.5	-0.0897873
16.7221	1530	-0.0904937
16.9369	1555.5	-0.0913361
17.1526	1581	-0.0916702
17.3684	1606.5	-0.0923746
17.5836	1632	-0.0929419
17.7988	1657.5	-0.0930409
18.0135	1683	-0.0935293
18.2288	1708.5	-0.0940757
18.4445	1734	-0.0946801
18.6598	1759.5	-0.0958863
18.8747	1785	-0.0960813
19.0901	1810.5	-0.0971106
19.3044	1836	-0.0974988
19.5198	1861.5	-0.0983327
19.7356	1887	-0.098817
19.9508	1912.5	-0.0992234
20.1665	1938	-0.100732
20.381	1963.5	-0.10137
20.5957	1989	-0.102238
20.8111	2014.5	-0.102951
21.0269	2040	-0.103953
21.242	2065.5	-0.103855
21.4569	2091	-0.10501
21.6718	2116.5	-0.106299
21.8871	2142	-0.105024
22.1028	2167.5	-0.107678
22.3181	2193	-0.107059
22.5334	2218.5	-0.10921
22.748	2244	-0.110571
22.9631	2269.5	-0.111085
23.1778	2295	-0.111867
23.3935	2320.5	-0.111268
23.6092	2346	-0.112452
23.8245	2371.5	-0.11354
24.0386	2397	-0.11386
24.2532	2422.5	-0.115042
24.4684	2448	-0.116892
24.6838	2473.5	-0.116962
24.8987	2499	-0.118599
25.1142	2524.5	-0.118631
25.3289	2550	-0.120781
25.5435	2575.5	-0.121174
25.7589	2601	-0.121414
25.9744	2626.5	-0.122512
26.1895	2652	-0.122866
26.4056	2677.5	-0.123715
26.6204	2703	-0.123479
26.8349	2728.5	-0.124688
27.0499	2754	-0.123653
27.2657	2779.5	-0.125545
27.4808	2805	-0.125081
27.6961	2830.5	-0.125738
27.9114	2856	-0.12685
28.1262	2881.5	-0.127676
28.341	2907	-0.128274
28.5557	2932.5	-0.128189
28.7713	2958	-0.129014
28.9868	2983.5	-0.129252
29.2025	3009	-0.130587
29.4172	3034.5	-0.130503
29.6321	3060	-0.132459
29.8468	3085.5	-0.133168
30.0622	3111	-0.133441
30.2775	3136.5	-0.134866
30.493	3162	-0.13465
30.7082	3187.5	-0.135508
30.9228	3213	-0.135649
31.1377	3238.5	-0.136939
31.3524	3264	-0.1374
31.5678	3289.5	-0.137786
31.7835	3315	-0.139507
31.9993	3340.5	-0.139703
32.2137	3366	-0.140427
32.4288	3391.5	-0.140623
32.6435	3417	-0.141214
32.8585	3442.5	-0.142143
33.0739	3468	-0.143258
33.2892	3493.5	-0.142686
33.5043	3519	-0.143464
33.7194	3544.5	-0.143379
33.9338	3570	-0.144212
34.1488	3595.5	-0.145456
34.3642	3621	-0.145503
34.5796	3646.5	-0.146092
34.7951	3672	-0.146195
35.0099	3697.5	-0.147045
35.2247	3723	-0.146606
35.4398	3748.5	-0.146952
35.6546	3774	-0.147727
35.8702	3799.5	-0.14867
36.0852	3825	-0.148904
36.3002	3850.5	-0.149305
36.5151	3876	-0.149781
36.7298	3901.5	-0.151522
36.9454	3927	-0.151737
37.161	3952.5	-0.151617
37.376	3978	-0.152706
37.591	4003.5	-0.153608
37.806	4029	-0.152151
38.0203	4054.5	-0.153221
38.236	4080	-0.153455
38.451	4105.5	-0.1538
38.6661	4131	-0.154035
38.881	4156.5	-0.155418
39.0958	4182	-0.154633
39.3112	4207.5	-0.154701
39.5262	4233	-0.155195
39.7416	4258.5	-0.155818
39.9573	4284	-0.155628
40.1719	4309.5	-0.156066
40.3864	4335	-0.155932
40.6012	4360.5	-0.155447
40.8164	4386	-0.157732
41.0316	4411.5	-0.156915
41.2469	4437	-0.156358
41.4625	4462.5	-0.157424
41.6774	4488	-0.153231
41.8917	4513.5	-0.153672
42.1069	4539	-0.158371
42.3221	4564.5	-0.161739
42.5371	4590	-0.162675
42.7533	4615.5	-0.157148
42.9759	4641	-0.158012
43.1954	4666.5	-0.15963
43.4073	4692	-0.160456
43.6175	4717.5	-0.160546
43.8284	4743	-0.161721
44.0525	4768.5	-0.160673
44.2649	4794	-0.161921
44.4785	4819.5	-0.161371
44.6906	4845	-0.165079
44.9061	4870.5	-0.161794
45.1197	4896	-0.159814
45.3343	4921.5	-0.158808
45.5481	4947	-0.159946
45.7631	4972.5	-0.158995
45.9683	4998	-0.156487
46.1849	5023.5	-0.160005
46.4026	5049	-0.162992
46.6218	5074.5	-0.163598
46.8355	5100	-0.163492
47.0507	5125.5	-0.164519
47.2796	5151	-0.164632
47.4927	5176.5	-0.166372
47.7072	5202	-0.164823
47.9212	5227.5	-0.164243
48.1376	5253	-0.162277
48.3493	5278.5	-0.164838
48.5628	5304	-0.16488
48.7747	5329.5	-0.164776
48.9911	5355	-0.1646
49.2049	5380.5	-0.165154
49.4229	5406	-0.162847
49.6359	5431.5	-0.16433
49.8493	5457	-0.165012
50.065	5482.5	-0.164347
50.2793	5508	-0.163828
50.4951	5533.5	-0.163218
50.7115	5559	-0.160717
50.9273	5584.5	-0.164566
51.1396	5610	-0.163322
51.3548	5635.5	-0.164842
51.5688	5661	-0.162799
51.7818	5686.5	-0.162974
52.0035	5712	-0.162224
52.2196	5737.5	-0.1624
52.4342	5763	-0.162504
52.6458	5788.5	-0.163588
52.8646	5814	-0.163657
53.0764	5839.5	-0.164759
53.296	5865	-0.162923
53.5095	5890.5	-0.163536
53.724	5916	-0.165057
53.9379	5941.5	-0.167066
54.1506	5967	-0.165179
54.367	5992.5	-0.166028
54.5852	6018	-0.16302
54.7986	6043.5	-0.163508
55.0138	6069	-0.16367
55.2255	6094.5	-0.163417
55.4397	6120	-0.164069
55.6531	6145.5	-0.164775
55.8685	6171	-0.16369
56.0861	6196.5	-0.163691
56.3015	6222	-0.164471
56.5167	6247.5	-0.165214
56.7318	6273	-0.16491
56.9462	6298.5	-0.166195
57.1613	6324	-0.165313
57.3781	6349.5	-0.16398
57.5928	6375	-0.164328
57.8103	6400.5	-0.164621
58.0255	6426	-0.165385
58.2369	6451.5	-0.164001
58.4518	6477	-0.164692
58.6679	6502.5	-0.16284
58.8838	6528	-0.16218
59.1008	6553.5	-0.162873
59.3153	6579	-0.163783
59.5271	6604.5	-0.164007
59.7421	6630	-0.163799
59.9592	6655.5	-0.163916
60.1745	6681	-0.163547
60.388	6706.5	-0.163287
60.6035	6732	-0.163983
60.8181	6757.5	-0.162101
61.0318	6783	-0.162293
61.246	6808.5	-0.163385
61.4618	6834	-0.163505
61.6802	6859.5	-0.165281
61.8945	6885	-0.16632
62.114	6910.5	-0.165235
62.3275	6936	-0.163288
62.5408	6961.5	-0.162852
62.7552	6987	-0.161338
62.969	7012.5	-0.16236
63.1855	7038	-0.162142
63.3955	7063.5	-0.163219
63.6099	7089	-0.161976
63.8271	7114.5	-0.158847
64.0447	7140	-0.16122
64.259	7165.5	-0.161597
64.474	7191	-0.163969
64.5458	7200	-0.163029