File: rawdata/buffer_heating2
H2O_H2O
Furnace temperature 	Time	HeatFlow
/°C	/s	/mW
8.2682	0.000000000	0.089021
7.76022	25.5	0.0862127
7.00478	51	0.118409
6.24254	76.5	0.242839
5.80708	102	0.353186
5.63317	127.5	0.36848
5.61495	153	0.31923
5.3718	178.5	0.246688
5.04972	204	0.174866
5.02946	229.5	0.112778
5.24001	255	0.0625554
5.52352	280.5	0.0237965
5.8271	306	-0.005752476
6.1307	331.5	-0.0287393
6.42634	357	-0.0452619
6.71281	382.5	-0.056947
6.98704	408	-0.0658384
7.25277	433.5	-0.0727668
7.50677	459	-0.0775354
7.75356	484.5	-0.081113
7.99345	510	-0.0832617
8.22832	535.5	-0.0862297
8.45964	561	-0.0870304
8.68726	586.5	-0.0869493
8.91494	612	-0.0864485
9.14101	637.5	-0.085989
9.36482	663	-0.0854902
9.58669	688.5	-0.0849124
9.80755	714	-0.0845949
10.0274	739.5	-0.0836201
10.2462	765	-0.0834639
10.4643	790.5	-0.0833875
10.6824	816	-0.0831921
10.8987	841.5	-0.084031
11.1157	867	-0.0832992
11.3317	892.5	-0.0831639
11.5482	918	-0.0827711
11.7645	943.5	-0.0820022
11.9809	969	-0.0827209
12.1963	994.5	-0.0839736
12.412	1020	-0.0837401
12.6276	1045.5	-0.0841993
12.8428	1071	-0.0833534
13.0591	1096.5	-0.0845041
13.2749	1122	-0.0847453
13.4902	1147.5	-0.0853217
13.706	1173	-0.0858975
13.9212	1198.5	-0.0869453
14.1368	1224	-0.0873618
14.3524	1249.5	-0.0871484
14.5679	1275	-0.0871714
14.7836	1300.5	-0.0875876
14.9985	1326	-0.0881997
15.2133	1351.5	-0.0881437
15.4282	1377	-0.0897748
15.6444	1402.5	-0.0902082
15.86	1428	-0.0897795
16.0756	1453.5	-0.0910351
16.2909	1479	-0.09225
16.5057	1504.5	-0.091997
16.7209	1530	-0.0923112
16.9366	1555.5	-0.0928986
17.1519	1581	-0.0939345
17.3675	1606.5	-0.0930966
17.5825	1632	-0.0949694
17.797	1657.5	-0.0954567
18.0122	1683	-0.095418
18.2281	1708.5	-0.0953407
18.4437	1734	-0.0960999
18.6591	1759.5	-0.0967416
18.8735	1785	-0.0972079
19.0883	1810.5	-0.0979454
19.3038	1836	-0.0980615
19.5193	1861.5	-0.100446
19.7352	1887	-0.100309
19.9502	1912.5	-0.0997463
20.165	1938	-0.100945
20.3801	1963.5	-0.10195
20.5955	1989	-0.101755
20.8109	2014.5	-0.102623
21.0264	2040	-0.103509
21.2417	2065.5	-0.103623
21.4566	2091	-0.104393
21.6712	2116.5	-0.106048
21.8862	2142	-0.105814
22.1013	2167.5	-0.107101
22.3167	2193	-0.107752
22.5323	2218.5	-0.108133
22.7478	2244	-0.108918
22.9626	2269.5	-0.109721
23.1772	2295	-0.111618
23.3923	2320.5	-0.111076
23.6083	2346	-0.112049
23.8236	2371.5	-0.112562
24.0384	2397	-0.1125
24.2539	2422.5	-0.114544
24.4685	2448	-0.115151
24.6833	2473.5	-0.116407
24.8983	2499	-0.117223
25.1141	2524.5	-0.11886
25.3299	2550	-0.118624
25.5451	2575.5	-0.117778
25.7599	2601	-0.119793
25.9749	2626.5	-0.120244
26.1893	2652	-0.119875
26.4047	2677.5	-0.121278
26.6203	2703	-0.122679
26.8358	2728.5	-0.122538
27.0508	2754	-0.122398
27.2657	2779.5	-0.124102
27.4806	2805	-0.123429
27.6957	2830.5	-0.124181
27.9108	2856	-0.125711
28.1263	2881.5	-0.125969
28.3417	2907	-0.125924
28.5565	2932.5	-0.128322
28.7713	2958	-0.129412
28.9863	2983.5	-0.12965
29.2013	3009	-0.130492
29.4168	3034.5	-0.131296
29.6325	3060	-0.131155
29.8477	3085.5	-0.132601
30.0622	3111	-0.133555
30.2769	3136.5	-0.133942
30.4921	3162	-0.134159
30.7075	3187.5	-0.134942
30.9231	3213	-0.135423
31.1382	3238.5	-0.135904
31.3535	3264	-0.136535
31.5681	3289.5	-0.138407
31.7828	3315	-0.137852
31.998	3340.5	-0.137673
32.2134	3366	-0.139637
32.4291	3391.5	-0.139102
32.644	3417	-0.14037
32.8587	3442.5	-0.140323
33.0734	3468	-0.143127
33.2884	3493.5	-0.141917
33.504	3519	-0.142208
33.7196	3544.5	-0.142986
33.9342	3570	-0.143651
34.1493	3595.5	-0.144427
34.3637	3621	-0.144531
34.5792	3646.5	-0.144671
34.7948	3672	-0.144289
35.0098	3697.5	-0.146018
35.225	3723	-0.145748
35.4397	3748.5	-0.146411
35.6545	3774	-0.146981
35.8699	3799.5	-0.147346
36.0849	3825	-0.1484
36.3003	3850.5	-0.148523
36.5153	3876	-0.14872
36.7304	3901.5	-0.149661
36.9449	3927	-0.149951
37.1601	3952.5	-0.149944
37.3757	3978	-0.149212
37.5913	4003.5	-0.150041
37.8057	4029	-0.151409
38.0206	4054.5	-0.151643
38.2352	4080	-0.151414
38.4508	4105.5	-0.152966
38.6656	4131	-0.151699
38.8809	4156.5	-0.15262
39.096	4182	-0.152614
39.3106	4207.5	-0.153257
39.5257	4233	-0.153714
39.7413	4258.5	-0.153709
39.9569	4284	-0.154129
40.1716	4309.5	-0.155641
40.3871	4335	-0.154749
40.602	4360.5	-0.155835
40.8163	4386	-0.155701
41.0312	4411.5	-0.156583
41.2464	4437	-0.156819
41.4629	4462.5	-0.156834
41.6778	4488	-0.157937
41.8927	4513.5	-0.156938
42.1073	4539	-0.157562
42.3218	4564.5	-0.158517
42.5367	4590	-0.158275
42.7521	4615.5	-0.157868
42.9678	4641	-0.158805
43.1828	4666.5	-0.15781
43.3982	4692	-0.158857
43.6127	4717.5	-0.159316
43.8275	4743	-0.16005
44.0423	4768.5	-0.158947
44.2582	4794	-0.159479
44.4737	4819.5	-0.159627
44.6879	4845	-0.159572
44.9041	4870.5	-0.160985
45.1184	4896	-0.16161
45.3341	4921.5	-0.159942
45.5488	4947	-0.160989
45.7642	4972.5	-0.156555
45.9792	4998	-0.159325
46.1935	5023.5	-0.160408
46.4085	5049	-0.163651
46.6233	5074.5	-0.164092
46.8389	5100	-0.16426
47.0659	5125.5	-0.163806
47.2799	5151	-0.16169
47.4928	5176.5	-0.162097
47.7061	5202	-0.161261
47.9205	5227.5	-0.161632
48.1334	5253	-0.163025
48.3484	5278.5	-0.161626
48.5624	5304	-0.161651
48.7767	5329.5	-0.162096
48.9927	5355	-0.161665
49.2065	5380.5	-0.15954
49.4217	5406	-0.159512
49.6365	5431.5	-0.160159
49.851	5457	-0.161297
50.0651	5482.5	-0.161416
50.2794	5508	-0.161678
50.495	5533.5	-0.1632
50.7101	5559	-0.163701
50.9255	5584.5	-0.157272
51.1415	5610	-0.166977
51.3566	5635.5	-0.165169
51.5712	5661	-0.163472
51.7816	5686.5	-0.16183
51.9998	5712	-0.161443
52.2299	5737.5	-0.159277
52.4269	5763	-0.156403
52.6433	5788.5	-0.158905
52.8589	5814	-0.162784
53.0744	5839.5	-0.164576
53.2921	5865	-0.1645
53.5076	5890.5	-0.165676
53.7363	5916	-0.163135
53.9467	5941.5	-0.162661
54.1585	5967	-0.161953
54.3722	5992.5	-0.161445
54.5868	6018	-0.161534
54.8005	6043.5	-0.160846
55.0148	6069	-0.161045
55.2293	6094.5	-0.161716
55.4435	6120	-0.160269
55.6575	6145.5	-0.158208
55.8724	6171	-0.16143
56.0875	6196.5	-0.15928
56.3024	6222	-0.160819
56.5182	6247.5	-0.161925
56.7323	6273	-0.161061
56.947	6298.5	-0.160649
57.1626	6324	-0.160725
57.3782	6349.5	-0.160513
57.5927	6375	-0.161024
57.8077	6400.5	-0.161065
58.0228	6426	-0.162515
58.2369	6451.5	-0.161944
58.4522	6477	-0.164459
58.6674	6502.5	-0.159721
58.8832	6528	-0.15769
59.0976	6553.5	-0.156797
59.3126	6579	-0.15832
59.5272	6604.5	-0.157842
59.7352	6630	-0.157996
59.9517	6655.5	-0.157916
60.1672	6681	-0.160448
60.3839	6706.5	-0.161828
60.6	6732	-0.16146
60.8155	6757.5	-0.160517
61.0316	6783	-0.15979
61.2473	6808.5	-0.159442
61.4641	6834	-0.160031
61.6795	6859.5	-0.158028
61.8938	6885	-0.162306
62.108	6910.5	-0.160917
62.3237	6936	-0.159563
62.5391	6961.5	-0.160261
62.7538	6987	-0.160708
62.9695	7012.5	-0.159411
63.1832	7038	-0.158096
63.3997	7063.5	-0.160432
63.6152	7089	-0.159154
63.8299	7114.5	-0.159099
64.0453	7140	-0.157805
64.2607	7165.5	-0.158937
64.475	7191	-0.159836
64.5501	7200	-0.158321