File: rawdata/buffer_cooling3
H2O_H2O
Furnace temperature 	Time	HeatFlow
/°C	/s	/mW
64.7953	0.000000000	-0.161948
66.6852	10.5	-0.176148
67.8448	21	-0.275296
67.8076	31.5	-0.400391
67.8193	42	-0.513442
67.7243	52.5	-0.611111
67.6063	63	-0.683924
67.4634	73.5	-0.730613
67.3039	84	-0.750377
67.1333	94.5	-0.746066
66.9548	105	-0.721198
66.7685	115.5	-0.686555
66.5776	126	-0.649693
66.3823	136.5	-0.621442
66.1837	147	-0.593076
65.9824	157.5	-0.554822
65.9024	168	-0.513372
65.6958	178.5	-0.465626
65.5091	189	-0.411619
65.3134	199.5	-0.357199
65.1054	210	-0.304294
64.8979	220.5	-0.251697
64.6849	231	-0.205679
64.4706	241.5	-0.150419
64.2555	252	-0.106425
64.0372	262.5	-0.0604694
63.8204	273	-0.0199977
63.6012	283.5	0.0180894
63.3831	294	0.0513378
63.1643	304.5	0.0797628
62.9457	315	0.104535
62.7266	325.5	0.128379
62.5083	336	0.150029
62.2896	346.5	0.168528
62.0724	357	0.189382
61.8533	367.5	0.206289
61.6364	378	0.216393
61.4179	388.5	0.229537
61.2015	399	0.243933
60.9839	409.5	0.254666
60.7681	420	0.266436
60.5512	430.5	0.273255
60.3348	441	0.277383
60.1197	451.5	0.283738
59.9035	462	0.288993
59.6881	472.5	0.294813
59.4729	483	0.29868
59.2582	493.5	0.303038
59.0426	504	0.30778
58.828	514.5	0.308557
58.6134	525	0.313865
58.399	535.5	0.311782
58.1845	546	0.313976
57.9707	556.5	0.318476
57.7556	567	0.322361
57.5429	577.5	0.324563
57.3284	588	0.321576
57.1154	598.5	0.319859
56.8999	609	0.322517
56.6871	619.5	0.324124
56.4748	630	0.330728
56.2595	640.5	0.329687
56.0474	651	0.33268
55.8335	661.5	0.330241
55.6202	672	0.329092
55.4081	682.5	0.330671
55.1931	693	0.326412
54.9818	703.5	0.330832
54.768	714	0.329267
54.5554	724.5	0.330323
54.3414	735	0.327483
54.1295	745.5	0.327356
53.9166	756	0.326684
53.7036	766.5	0.325356
53.4908	777	0.322952
53.277	787.5	0.323191
53.0651	798	0.325567
52.8514	808.5	0.321703
52.6403	819	0.322547
52.4249	829.5	0.319302
52.2144	840	0.318285
52.0014	850.5	0.316262
51.7883	861	0.317329
51.5753	871.5	0.316111
51.3633	882	0.317965
51.15	892.5	0.316437
50.9381	903	0.313517
50.725	913.5	0.312849
50.512	924	0.313627
50.3001	934.5	0.312739
50.0873	945	0.308352
49.8748	955.5	0.30794
49.6619	966	0.308702
49.4488	976.5	0.308879
49.2364	987	0.308046
49.0243	997.5	0.307783
48.8106	1008	0.308604
48.5996	1018.5	0.306414
48.3857	1029	0.310378
48.1742	1039.5	0.306111
47.9608	1050	0.30517
47.749	1060.5	0.305461
47.5361	1071	0.300473
47.3235	1081.5	0.30415
47.1096	1092	0.30205
46.8992	1102.5	0.30133
46.6848	1113	0.30201
46.4739	1123.5	0.296277
46.2601	1134	0.299171
46.0486	1144.5	0.298654
45.8347	1155	0.295001
45.6219	1165.5	0.295001
45.4105	1176	0.293301
45.197	1186.5	0.293561
44.9857	1197	0.294227
44.7729	1207.5	0.291769
44.5611	1218	0.28896
44.3473	1228.5	0.288258
44.1355	1239	0.28589
43.9228	1249.5	0.288428
43.7089	1260	0.290505
43.4982	1270.5	0.285654
43.2851	1281	0.283394
43.0728	1291.5	0.282321
42.8596	1302	0.282157
42.6483	1312.5	0.283162
42.4348	1323	0.281792
42.2226	1333.5	0.279994
42.0103	1344	0.281968
41.7978	1354.5	0.279537
41.5856	1365	0.278556
41.3729	1375.5	0.276887
41.1606	1386	0.277375
40.9481	1396.5	0.278201
40.7358	1407	0.275766
40.523	1417.5	0.272529
40.3107	1428	0.271956
40.0986	1438.5	0.273958
39.8863	1449	0.273256
39.6733	1459.5	0.272329
39.4616	1470	0.271252
39.2482	1480.5	0.268251
39.0356	1491	0.268856
38.8237	1501.5	0.268208
38.6107	1512	0.267393
38.3984	1522.5	0.267138
38.1869	1533	0.2634
37.9747	1543.5	0.264662
37.7616	1554	0.265833
37.5494	1564.5	0.264079
37.3374	1575	0.265157
37.1235	1585.5	0.264228
36.9117	1596	0.26405
36.6996	1606.5	0.259156
36.4871	1617	0.260819
36.2744	1627.5	0.260378
36.0639	1638	0.259296
35.8497	1648.5	0.261584
35.6384	1659	0.259787
35.4256	1669.5	0.260741
35.2127	1680	0.262676
35.0009	1690.5	0.25605
34.7885	1701	0.258137
34.5766	1711.5	0.2573
34.3639	1722	0.255971
34.1512	1732.5	0.256683
33.939	1743	0.255164
33.7266	1753.5	0.257069
33.514	1764	0.255834
33.3029	1774.5	0.253916
33.0888	1785	0.252528
32.8773	1795.5	0.251536
32.665	1806	0.253636
32.4525	1816.5	0.253177
32.2398	1827	0.25359
32.0284	1837.5	0.250149
31.8157	1848	0.249916
31.6036	1858.5	0.251452
31.3911	1869	0.249338
31.179	1879.5	0.251313
30.9665	1890	0.251921
30.7542	1900.5	0.24969
30.5418	1911	0.249268
30.3304	1921.5	0.248503
30.118	1932	0.247605
29.9045	1942.5	0.249741
29.6926	1953	0.250256
29.4811	1963.5	0.251002
29.2678	1974	0.24844
29.0558	1984.5	0.247005
28.8437	1995	0.249896
28.6316	2005.5	0.248442
28.4198	2016	0.250973
28.2069	2026.5	0.247984
27.9947	2037	0.24862
27.783	2047.5	0.247509
27.5702	2058	0.246568
27.3578	2068.5	0.252217
27.1451	2079	0.253453
26.9343	2089.5	0.253133
26.7217	2100	0.252487
26.509	2110.5	0.249374
26.2976	2121	0.248898
26.0848	2131.5	0.249926
25.8731	2142	0.249027
25.6605	2152.5	0.248726
25.4482	2163	0.247961
25.2358	2173.5	0.246906
25.0237	2184	0.24438
24.8125	2194.5	0.2475
24.5994	2205	0.244141
24.3884	2215.5	0.244941
24.1828	2226	0.245821
23.9726	2236.5	0.247497
23.76	2247	0.244422
23.5476	2257.5	0.245401
23.3346	2268	0.24368
23.1224	2278.5	0.245088
22.9097	2289	0.243562
22.6964	2299.5	0.243902
22.4831	2310	0.245781
22.2712	2320.5	0.246591
22.0585	2331	0.246778
21.8451	2341.5	0.245717
21.633	2352	0.243113
21.4208	2362.5	0.245132
21.2079	2373	0.244713
20.997	2383.5	0.24627
20.7843	2394	0.247086
20.5727	2404.5	0.245476
20.3595	2415	0.245823
20.1465	2425.5	0.242857
19.9358	2436	0.238143
19.7236	2446.5	0.236504
19.5118	2457	0.233588
19.3001	2467.5	0.23277
19.0879	2478	0.22568
18.8764	2488.5	0.223007
18.6658	2499	0.222241
18.4537	2509.5	0.219012
18.2459	2520	0.215622
18.0371	2530.5	0.215345
17.827	2541	0.212559
17.6155	2551.5	0.21076
17.4051	2562	0.210103
17.1928	2572.5	0.207587
16.9808	2583	0.204614
16.7693	2593.5	0.200686
16.5572	2604	0.200419
16.3467	2614.5	0.19797
16.1352	2625	0.196293
15.9236	2635.5	0.192151
15.7107	2646	0.192117
15.5003	2656.5	0.187571
15.289	2667	0.184351
15.077	2677.5	0.182122
14.8661	2688	0.180747
14.6563	2698.5	0.175704
14.4443	2709	0.174183
14.2332	2719.5	0.170665
14.0226	2730	0.167942
13.8115	2740.5	0.164935
13.6	2751	0.161406
13.3897	2761.5	0.157109
13.1798	2772	0.157392
12.9688	2782.5	0.157336
12.7589	2793	0.15806
12.5501	2803.5	0.152566
12.3378	2814	0.151481
12.1271	2824.5	0.152284
11.9188	2835	0.149589
11.7096	2845.5	0.147514
11.5002	2856	0.148213
11.2904	2866.5	0.146295
11.0818	2877	0.145198
10.8729	2887.5	0.143838
10.6626	2898	0.1453
10.4541	2908.5	0.147952
10.2449	2919	0.149497
10.0393	2929.5	0.149041
9.83397	2940	0.150567
9.63032	2950.5	0.150816
9.42547	2961	0.151956
9.22228	2971.5	0.153906
9.02019	2982	0.153587
8.81811	2992.5	0.153245
8.68342	2999.5	0.154478