File: rawdata/buffer_cooling1
H2O_H2O
Furnace temperature 	Time	HeatFlow
/°C	/s	/mW
64.8589	0.000000000	-0.164194
66.7246	10.5	-0.179544
67.848	21	-0.276806
67.8186	31.5	-0.388692
67.8195	42	-0.478896
67.7249	52.5	-0.547044
67.6023	63	-0.587164
67.4598	73.5	-0.606421
67.2997	84	-0.6036
67.1296	94.5	-0.581897
66.9499	105	-0.550135
66.7646	115.5	-0.51565
66.5736	126	-0.48265
66.3785	136.5	-0.459828
66.1802	147	-0.443318
65.9792	157.5	-0.422466
65.8975	168	-0.393616
65.6918	178.5	-0.345726
65.5038	189	-0.281615
65.3078	199.5	-0.212767
65.1003	210	-0.159569
64.8943	220.5	-0.120948
64.6817	231	-0.0939378
64.4691	241.5	-0.0539425
64.2526	252	-0.0102027
64.0367	262.5	0.0454512
63.8191	273	0.0887181
63.6009	283.5	0.118221
63.3828	294	0.13574
63.1646	304.5	0.152182
62.9461	315	0.168397
62.7275	325.5	0.189743
62.5094	336	0.21821
62.2905	346.5	0.23322
62.0733	357	0.24484
61.8554	367.5	0.244436
61.6378	378	0.253789
61.4202	388.5	0.263037
61.2036	399	0.277928
60.9864	409.5	0.289228
60.7701	420	0.291675
60.5536	430.5	0.290886
60.3377	441	0.296013
60.1218	451.5	0.297632
59.907	462	0.304465
59.6898	472.5	0.306884
59.4763	483	0.307568
59.2601	493.5	0.312671
59.0462	504	0.311854
58.8304	514.5	0.315041
58.616	525	0.31477
58.4012	535.5	0.31169
58.1873	546	0.313178
57.9729	556.5	0.318076
57.759	567	0.319458
57.5455	577.5	0.319518
57.3314	588	0.316257
57.1182	598.5	0.315792
56.9038	609	0.316052
56.6904	619.5	0.315733
56.4757	630	0.316122
56.2634	640.5	0.314005
56.0493	651	0.313923
55.8371	661.5	0.315078
55.6226	672	0.310416
55.411	682.5	0.310463
55.196	693	0.311401
54.9846	703.5	0.313488
54.7701	714	0.313246
54.5574	724.5	0.315209
54.3442	735	0.315698
54.1314	745.5	0.312161
53.9187	756	0.315894
53.7059	766.5	0.309769
53.493	777	0.309329
53.28	787.5	0.302725
53.0675	798	0.30931
52.8538	808.5	0.310916
52.6417	819	0.315116
52.4294	829.5	0.305933
52.2162	840	0.299469
52.0032	850.5	0.299524
51.7911	861	0.300036
51.5786	871.5	0.299032
51.3657	882	0.302016
51.1525	892.5	0.301177
50.9409	903	0.30098
50.7282	913.5	0.296609
50.5151	924	0.294947
50.3026	934.5	0.293338
50.0898	945	0.291694
49.8772	955.5	0.291074
49.6642	966	0.288127
49.4512	976.5	0.292296
49.2388	987	0.288963
49.0262	997.5	0.286234
48.814	1008	0.282548
48.6014	1018.5	0.284004
48.3881	1029	0.285021
48.1757	1039.5	0.282197
47.9635	1050	0.28465
47.7511	1060.5	0.288116
47.5379	1071	0.284593
47.3264	1081.5	0.282817
47.113	1092	0.280211
46.9	1102.5	0.276519
46.6875	1113	0.275937
46.4757	1123.5	0.278489
46.2621	1134	0.281302
46.0491	1144.5	0.278178
45.836	1155	0.275625
45.6242	1165.5	0.275358
45.4117	1176	0.26922
45.1992	1186.5	0.267991
44.9859	1197	0.26425
44.7742	1207.5	0.264111
44.5597	1218	0.26388
44.3487	1228.5	0.268422
44.1351	1239	0.265214
43.9227	1249.5	0.261651
43.7102	1260	0.261366
43.4976	1270.5	0.253111
43.2855	1281	0.250988
43.0733	1291.5	0.251032
42.8608	1302	0.247274
42.648	1312.5	0.247894
42.4355	1323	0.254661
42.2233	1333.5	0.250827
42.0106	1344	0.253031
41.798	1354.5	0.250959
41.5853	1365	0.251434
41.373	1375.5	0.247873
41.1605	1386	0.250956
40.9485	1396.5	0.24812
40.7361	1407	0.246176
40.5227	1417.5	0.243541
40.3105	1428	0.243963
40.0978	1438.5	0.239797
39.8847	1449	0.244249
39.6748	1459.5	0.239277
39.4621	1470	0.2397
39.249	1480.5	0.234591
39.0371	1491	0.232078
38.8245	1501.5	0.230928
38.6139	1512	0.232174
38.4036	1522.5	0.231865
38.1933	1533	0.232158
37.9805	1543.5	0.231738
37.7691	1554	0.2301
37.5551	1564.5	0.227055
37.3424	1575	0.22836
37.1301	1585.5	0.223922
36.9174	1596	0.2232
36.7043	1606.5	0.223754
36.4928	1617	0.222205
36.28	1627.5	0.218792
36.0668	1638	0.222942
35.8539	1648.5	0.221616
35.6413	1659	0.217955
35.4277	1669.5	0.220001
35.2143	1680	0.21775
35.0035	1690.5	0.216025
34.7896	1701	0.216639
34.5779	1711.5	0.215405
34.3657	1722	0.212772
34.1535	1732.5	0.20936
33.9406	1743	0.210427
33.7282	1753.5	0.209662
33.5164	1764	0.20812
33.3038	1774.5	0.206917
33.0917	1785	0.207456
32.8784	1795.5	0.208962
32.6662	1806	0.207683
32.4536	1816.5	0.203485
32.2409	1827	0.19799
32.0269	1837.5	0.195679
31.8163	1848	0.197718
31.6052	1858.5	0.196089
31.3914	1869	0.194269
31.1766	1879.5	0.195778
30.9657	1890	0.194262
30.755	1900.5	0.1908
30.5425	1911	0.193855
30.3298	1921.5	0.193442
30.1163	1932	0.194671
29.9048	1942.5	0.191184
29.6933	1953	0.190618
29.4824	1963.5	0.19202
29.2671	1974	0.186481
29.047	1984.5	0.187576
28.8345	1995	0.186185
28.6227	2005.5	0.185328
28.4108	2016	0.184068
28.1982	2026.5	0.181158
27.9861	2037	0.181488
27.775	2047.5	0.178958
27.562	2058	0.177193
27.3509	2068.5	0.179425
27.1388	2079	0.174526
26.9262	2089.5	0.178952
26.7162	2100	0.175973
26.5038	2110.5	0.17403
26.2911	2121	0.174513
26.0797	2131.5	0.175249
25.8672	2142	0.173303
25.6552	2152.5	0.17373
25.4433	2163	0.172999
25.2311	2173.5	0.17076
25.018	2184	0.169659
24.8078	2194.5	0.164339
24.5956	2205	0.16484
24.383	2215.5	0.162224
24.171	2226	0.160517
23.9581	2236.5	0.159912
23.747	2247	0.155718
23.535	2257.5	0.155926
23.322	2268	0.152967
23.1106	2278.5	0.154866
22.8991	2289	0.153927
22.6865	2299.5	0.154214
22.4753	2310	0.153528
22.2629	2320.5	0.150248
22.0505	2331	0.154492
21.8385	2341.5	0.150117
21.6261	2352	0.149994
21.4153	2362.5	0.148444
21.2029	2373	0.147068
20.9919	2383.5	0.147256
20.7789	2394	0.144763
20.5677	2404.5	0.143756
20.355	2415	0.143237
20.1445	2425.5	0.142836
19.9314	2436	0.140726
19.7197	2446.5	0.142738
19.5071	2457	0.138977
19.2942	2467.5	0.140322
19.083	2478	0.137165
18.8714	2488.5	0.13363
18.6602	2499	0.136294
18.4483	2509.5	0.135887
18.2358	2520	0.131853
18.0247	2530.5	0.131048
17.8123	2541	0.130401
17.6007	2551.5	0.129358
17.3882	2562	0.128749
17.177	2572.5	0.124361
16.9644	2583	0.125628
16.7529	2593.5	0.122877
16.541	2604	0.120955
16.3287	2614.5	0.122422
16.1184	2625	0.119663
15.906	2635.5	0.117517
15.6948	2646	0.119402
15.4838	2656.5	0.113933
15.2718	2667	0.115917
15.0603	2677.5	0.112012
14.85	2688	0.113061
14.6393	2698.5	0.109388
14.4266	2709	0.108323
14.2164	2719.5	0.108854
14.0051	2730	0.106728
13.7955	2740.5	0.103581
13.5842	2751	0.10373
13.3732	2761.5	0.101977
13.1626	2772	0.0994618
12.9519	2782.5	0.0983858
12.741	2793	0.0948407
12.5309	2803.5	0.09364
12.3194	2814	0.0930199
12.1095	2824.5	0.0897665
11.8993	2835	0.088218
11.6898	2845.5	0.0871711
11.4802	2856	0.0851547
11.2695	2866.5	0.0861578
11.0599	2877	0.0866174
10.8503	2887.5	0.087542
10.6423	2898	0.0863882
10.4328	2908.5	0.0835566
10.2254	2919	0.0802757
10.0165	2929.5	0.0802463
9.80748	2940	0.083981
9.60105	2950.5	0.0825956
9.39368	2961	0.0870629
9.18698	2971.5	0.0892034
8.97999	2982	0.0900479
8.77442	2992.5	0.0894915
8.63508	2999.5	0.0898102