File: rawdata/empty_7
empty
Furnace temperature 	Time	HeatFlow
/°C	/s	/mW
64.8078	0	-0.188576
66.7779	10.5	-0.207558
67.8794	21	-0.313755
67.8337	31.5	-0.455136
67.8377	42	-0.594976
67.739	52.5	-0.718918
67.6178	63	-0.811898
67.4715	73.5	-0.873634
67.312	84	-0.902643
67.1395	94.5	-0.90929
66.9595	105	-0.888058
66.7728	115.5	-0.845882
66.5812	126	-0.790742
66.3853	136.5	-0.72742
66.1863	147	-0.657655
65.9845	157.5	-0.584094
65.9013	168	-0.507901
65.6917	178.5	-0.434154
65.5074	189	-0.363303
65.3084	199.5	-0.295079
65.1021	210	-0.227446
64.893	220.5	-0.17127
64.6819	231	-0.11403
64.4658	241.5	-0.0637111
64.2513	252	-0.0224423
64.0335	262.5	0.0202286
63.8165	273	0.0564767
63.5974	283.5	0.0887339
63.3799	294	0.120822
63.1607	304.5	0.147401
62.9414	315	0.169913
62.7234	325.5	0.187144
62.5042	336	0.207668
62.2869	346.5	0.227063
62.0677	357	0.232777
61.8507	367.5	0.250559
61.6322	378	0.256137
61.416	388.5	0.266488
61.1981	399	0.27594
60.9823	409.5	0.283878
60.7651	420	0.292145
60.5488	430.5	0.29566
60.3329	441	0.296736
60.1164	451.5	0.296456
59.902	462	0.308608
59.6854	472.5	0.307011
59.4707	483	0.307296
59.255	493.5	0.308995
59.041	504	0.311582
58.8257	514.5	0.316436
58.6114	525	0.313791
58.3969	535.5	0.309134
58.1839	546	0.305635
57.9683	556.5	0.311892
57.7552	567	0.311368
57.5406	577.5	0.310737
57.3274	588	0.30938
57.113	598.5	0.309529
56.8998	609	0.313401
56.6857	619.5	0.309685
56.4724	630	0.310254
56.2592	640.5	0.310044
56.0451	651	0.304417
55.8329	661.5	0.30877
55.6193	672	0.304978
55.4061	682.5	0.303459
55.1922	693	0.301485
54.9803	703.5	0.302258
54.7662	714	0.296189
54.554	724.5	0.29638
54.3404	735	0.296863
54.128	745.5	0.300718
53.9138	756	0.297268
53.7022	766.5	0.293507
53.4894	777	0.295762
53.2761	787.5	0.291561
53.0626	798	0.287816
52.8511	808.5	0.288594
52.6379	819	0.288863
52.4257	829.5	0.286101
52.2113	840	0.28248
52.0002	850.5	0.282895
51.7867	861	0.281483
51.5747	871.5	0.281826
51.3611	882	0.283085
51.1491	892.5	0.281198
50.9364	903	0.277902
50.7242	913.5	0.275867
50.5111	924	0.275845
50.2989	934.5	0.273297
50.086	945	0.273075
49.8725	955.5	0.2686
49.6608	966	0.272393
49.4479	976.5	0.271622
49.2359	987	0.269456
49.0228	997.5	0.265711
48.8102	1008	0.264571
48.5973	1018.5	0.261502
48.3848	1029	0.264716
48.1722	1039.5	0.264055
47.9603	1050	0.253096
47.7474	1060.5	0.254712
47.535	1071	0.256862
47.3221	1081.5	0.255997
47.1097	1092	0.255757
46.8973	1102.5	0.258429
46.684	1113	0.252386
46.472	1123.5	0.253972
46.2595	1134	0.252775
46.0473	1144.5	0.247758
45.834	1155	0.249917
45.6224	1165.5	0.247519
45.4088	1176	0.246873
45.1977	1186.5	0.244417
44.9838	1197	0.245379
44.7714	1207.5	0.242071
44.5586	1218	0.241239
44.3465	1228.5	0.23939
44.134	1239	0.237226
43.9222	1249.5	0.23443
43.7098	1260	0.233484
43.4958	1270.5	0.230168
43.284	1281	0.229684
43.0713	1291.5	0.228831
42.8599	1302	0.230073
42.6462	1312.5	0.22857
42.4342	1323	0.228701
42.2215	1333.5	0.223815
42.01	1344	0.222291
41.7961	1354.5	0.221379
41.5852	1365	0.218979
41.3712	1375.5	0.218066
41.1594	1386	0.219759
40.9469	1396.5	0.214823
40.7348	1407	0.214598
40.5222	1417.5	0.213459
40.3083	1428	0.212301
40.0975	1438.5	0.209203
39.8851	1449	0.211627
39.6721	1459.5	0.208452
39.4598	1470	0.207646
39.2471	1480.5	0.206692
39.035	1491	0.206689
38.8217	1501.5	0.202928
38.6095	1512	0.202346
38.3979	1522.5	0.19791
38.1848	1533	0.19328
37.9729	1543.5	0.19288
37.7599	1554	0.193943
37.5482	1564.5	0.191387
37.3358	1575	0.192113
37.1224	1585.5	0.191337
36.9105	1596	0.192064
36.6974	1606.5	0.192435
36.4852	1617	0.193765
36.2732	1627.5	0.191355
36.0609	1638	0.194212
35.8484	1648.5	0.189503
35.6363	1659	0.190893
35.4233	1669.5	0.187931
35.2116	1680	0.187361
34.9986	1690.5	0.186396
34.7878	1701	0.18273
34.5741	1711.5	0.179138
34.3628	1722	0.178148
34.1492	1732.5	0.17559
33.9372	1743	0.175185
33.725	1753.5	0.173153
33.5125	1764	0.173977
33.2996	1774.5	0.168951
33.0878	1785	0.167066
32.8751	1795.5	0.164874
32.6632	1806	0.167746
32.4507	1816.5	0.164017
32.2386	1827	0.163417
32.0261	1837.5	0.164089
31.8134	1848	0.161342
31.6018	1858.5	0.159809
31.3883	1869	0.158827
31.1771	1879.5	0.15889
30.9641	1890	0.155221
30.752	1900.5	0.154388
30.5402	1911	0.154527
30.3271	1921.5	0.15518
30.1145	1932	0.153239
29.9024	1942.5	0.152824
29.6922	1953	0.149219
29.4776	1963.5	0.148764
29.2666	1974	0.144885
29.0537	1984.5	0.142935
28.8412	1995	0.141959
28.6289	2005.5	0.139086
28.4172	2016	0.13807
28.2051	2026.5	0.138606
27.9919	2037	0.1369358
27.7803	2047.5	0.136243
27.5676	2058	0.13507
27.3548	2068.5	0.131494
27.1426	2079	0.133047
26.9311	2089.5	0.129351
26.7188	2100	0.128673
26.5067	2110.5	0.128303
26.2946	2121	0.124964
26.0819	2131.5	0.123337
25.8706	2142	0.12443
25.6571	2152.5	0.122165
25.4452	2163	0.119222
25.2332	2173.5	0.118246
25.0211	2184	0.116014
24.8085	2194.5	0.115171
24.5972	2205	0.112566
24.3848	2215.5	0.111895
24.1721	2226	0.110119
23.9597	2236.5	0.109524
23.7478	2247	0.107376
23.5359	2257.5	0.104605
23.3239	2268	0.1062987
23.1118	2278.5	0.101365
22.8998	2289	0.0999864
22.688	2299.5	0.0963477
22.4749	2310	0.0984115
22.2643	2320.5	0.0947878
22.0515	2331	0.095352
21.8402	2341.5	0.0906492
21.6277	2352	0.0905084
21.4146	2362.5	0.0885321
21.2027	2373	0.087843
20.9915	2383.5	0.0864103
20.779	2394	0.0871287
20.5665	2404.5	0.0842253
20.3553	2415	0.0818278
20.143	2425.5	0.0786431
19.9319	2436	0.080438
19.719	2446.5	0.0804879
19.5076	2457	0.0767667
19.2957	2467.5	0.076068
19.0838	2478	0.0738142
18.8705	2488.5	0.0709876
18.66	2499	0.07199724
18.4476	2509.5	0.0718455
18.2359	2520	0.0669222
18.0246	2530.5	0.0656819
17.8138	2541	0.062111
17.5999	2551.5	0.060669
17.3874	2562	0.0601938
17.1775	2572.5	0.0590457
16.9651	2583	0.0559958
16.7538	2593.5	0.0548436
16.5418	2604	0.0534323
16.3299	2614.5	0.0480331
16.1188	2625	0.0463972
15.9064	2635.5	0.0464474
15.6958	2646	0.0459014
15.4842	2656.5	0.0431875
15.2725	2667	0.0420221
15.0608	2677.5	0.0406759
14.8494	2688	0.0391885
14.6385	2698.5	0.0358452
14.4265	2709	0.0335548
14.2152	2719.5	0.0323193
14.0048	2730	0.0303032
13.7935	2740.5	0.0291441
13.5818	2751	0.0264232
13.3714	2761.5	0.0274016
13.1596	2772	0.0257374
12.9495	2782.5	0.0235499
12.7396	2793	0.0236859
12.5283	2803.5	0.0190859
12.3182	2814	0.0202033
12.1077	2824.5	0.0196543
11.8975	2835	0.0174754
11.6865	2845.5	0.0166622
11.4772	2856	0.0144986
11.2678	2866.5	0.0135613
11.0576	2877	0.0152642
10.8491	2887.5	0.0140638
10.6397	2898	0.0143559
10.4302	2908.5	0.0161435
10.2207	2919	0.0144155
10.0113	2929.5	0.0166303
9.80275	2940	0.01702586
9.595	2950.5	0.0214126
9.38702	2961	0.0242235
9.17915	2971.5	0.03012063
8.972	2982	0.0380338
8.76522	2992.5	0.048007
8.62687	2999.5	0.051195