File: rawdata/empty_6
empty
Furnace temperature 	Time	HeatFlow
/°C	/s	/mW
7.69487	0	0.0459071
5.97441	25.5	0.0753266
5.24855	51	0.171248
5.01239	76.5	0.40975
4.98255	102	0.662746
5.05729	127.5	0.810644
5.19225	153	0.829977
5.10716	178.5	0.755079
5.18856	204	0.630424
5.38067	229.5	0.492783
5.61455	255	0.360238
5.86674	280.5	0.24538
6.1229	306	0.149838
6.37874	331.5	0.0772191
6.63105	357	0.019708
6.87807	382.5	-0.0208609
7.1206	408	-0.0504029
7.36287	433.5	-0.0711152
7.59596	459	-0.0845651
7.82719	484.5	-0.0947032
8.05554	510	-0.0996315
8.28163	535.5	-0.101566
8.50524	561	-0.102456
8.7271	586.5	-0.100863
8.94789	612	-0.100573
9.1673	637.5	-0.0982444
9.38653	663	-0.0960789
9.60533	688.5	-0.0945556
9.8237	714	-0.09349335
10.0411	739.5	-0.0908777
10.2574	765	-0.090059
10.4738	790.5	-0.0890622
10.69	816	-0.088306
10.9067	841.5	-0.087153
11.1235	867	-0.0867367
11.3397	892.5	-0.0863809
11.5553	918	-0.0859463
11.7706	943.5	-0.087238
11.9864	969	-0.0866253
12.2022	994.5	-0.0874197
12.4181	1020	-0.0859965
12.634	1045.5	-0.0871267
12.8492	1071	-0.0873068
13.0646	1096.5	-0.08644
13.2801	1122	-0.086917
13.4952	1147.5	-0.0873931
13.7113	1173	-0.0881647
13.9268	1198.5	-0.087556
14.142	1224	-0.0893505
14.3572	1249.5	-0.0886242
14.572	1275	-0.0887447
14.7873	1300.5	-0.0904765
15.0025	1326	-0.0904386
15.219	1351.5	-0.0900867
15.4342	1377	-0.0902063
15.6495	1402.5	-0.0911884
15.8641	1428	-0.0916603
16.0784	1453.5	-0.09242522
16.2949	1479	-0.0928372
16.5099	1504.5	-0.093444
16.7258	1530	-0.09317103
16.9411	1555.5	-0.093172
17.156	1581	-0.0939344
17.3705	1606.5	-0.0948714
17.5857	1632	-0.0944626
17.8005	1657.5	-0.0949114
18.0161	1683	-0.09615808
18.2313	1708.5	-0.0959829
18.4468	1734	-0.0963138
18.6625	1759.5	-0.0968778
18.8773	1785	-0.09740217
19.0918	1810.5	-0.0985279
19.3068	1836	-0.0985079
19.5225	1861.5	-0.0982747
19.7378	1887	-0.0987784
19.9533	1912.5	-0.100037
20.1683	1938	-0.100133
20.3831	1963.5	-0.100384
20.5977	1989	-0.10104
20.8129	2014.5	-0.101696
21.0289	2040	-0.10237
21.2446	2065.5	-0.103527
21.4596	2091	-0.103737
21.6744	2116.5	-0.103986
21.8891	2142	-0.104312
22.104	2167.5	-0.106004
22.3192	2193	-0.105559
22.5348	2218.5	-0.106634
22.75	2244	-0.1069002
22.9657	2269.5	-0.107282
23.1804	2295	-0.109545
23.3955	2320.5	-0.108735
23.6101	2346	-0.109537
23.8252	2371.5	-0.109649
24.0403	2397	-0.109991
24.2562	2422.5	-0.110677
24.4715	2448	-0.110693
24.6868	2473.5	-0.111569
24.9009	2499	-0.112693
25.1156	2524.5	-0.114008
25.3311	2550	-0.113144
25.5464	2575.5	-0.114286
25.7622	2601	-0.114453
25.9772	2626.5	-0.115307
26.1924	2652	-0.115912
26.4068	2677.5	-0.116879
26.6215	2703	-0.117008
26.8366	2728.5	-0.117364
27.0522	2754	-0.116809
27.2681	2779.5	-0.119009
27.4831	2805	-0.119536
27.6979	2830.5	-0.119873
27.9122	2856	-0.120551
28.127	2881.5	-0.121608
28.3426	2907	-0.122133
28.5585	2932.5	-0.121124
28.7736	2958	-0.12163
28.9888	2983.5	-0.123291
29.2037	3009	-0.123664
29.4184	3034.5	-0.12415
29.633	3060	-0.125184
29.8479	3085.5	-0.125386
30.0635	3111	-0.126646
30.2791	3136.5	-0.126074
30.4943	3162	-0.127955
30.7095	3187.5	-0.128138
30.924	3213	-0.129356
31.1384	3238.5	-0.129369
31.3541	3264	-0.12878
31.5694	3289.5	-0.129866
31.7847	3315	-0.130161
32.0002	3340.5	-0.132411
32.215	3366	-0.13216
32.43	3391.5	-0.131798
32.6444	3417	-0.132243
32.86	3442.5	-0.133101
33.0752	3468	-0.133527
33.2905	3493.5	-0.134327
33.5055	3519	-0.136195
33.7207	3544.5	-0.135664
33.935	3570	-0.135771
34.15	3595.5	-0.135953
34.3647	3621	-0.135461
34.5805	3646.5	-0.136877
34.7965	3672	-0.137694
35.0114	3697.5	-0.138996
35.2266	3723	-0.13886
35.4406	3748.5	-0.1399
35.6552	3774	-0.138757
35.8707	3799.5	-0.136065
36.0868	3825	-0.134851
36.3018	3850.5	-0.138239
36.5165	3876	-0.142983
36.7309	3901.5	-0.144896
36.9459	3927	-0.14569
37.1612	3952.5	-0.147322
37.377	3978	-0.145773
37.592	4003.5	-0.145117
37.8073	4029	-0.144593
38.0214	4054.5	-0.146185
38.2366	4080	-0.1449
38.4515	4105.5	-0.146214
38.6668	4131	-0.144857
38.8816	4156.5	-0.147319
39.0977	4182	-0.147204
39.3124	4207.5	-0.146738
39.5275	4233	-0.149031
39.7418	4258.5	-0.148268
39.9569	4284	-0.147655
40.1721	4309.5	-0.14952
40.388	4335	-0.150313
40.603	4360.5	-0.14983
40.8181	4386	-0.150641
41.0328	4411.5	-0.150657
41.2473	4437	-0.152537
41.4628	4462.5	-0.152093
41.678	4488	-0.152644
41.8932	4513.5	-0.153085
42.1088	4539	-0.154394
42.3233	4564.5	-0.153636
42.5381	4590	-0.153174
42.753	4615.5	-0.153377
42.9687	4641	-0.15345
43.184	4666.5	-0.154701
43.3992	4692	-0.156301
43.6142	4717.5	-0.156503
43.8284	4743	-0.157477
44.0435	4768.5	-0.155107
44.259	4794	-0.158451
44.4744	4819.5	-0.160691
44.6902	4845	-0.1597
44.9041	4870.5	-0.160105
45.1182	4896	-0.158896
45.3341	4921.5	-0.160071
45.549	4947	-0.158589
45.7647	4972.5	-0.158298
45.9801	4998	-0.15777
46.1941	5023.5	-0.1616
46.4095	5049	-0.161566
46.6239	5074.5	-0.161185
46.8396	5100	-0.161042
47.0554	5125.5	-0.161467
47.2706	5151	-0.161654
47.4851	5176.5	-0.1625
47.6998	5202	-0.163088
47.9146	5227.5	-0.164098
48.1297	5253	-0.162223
48.3452	5278.5	-0.163834
48.5602	5304	-0.164789
48.7757	5329.5	-0.165579
48.9904	5355	-0.16533
49.205	5380.5	-0.165245
49.4194	5406	-0.166802
49.6347	5431.5	-0.16628
49.8507	5457	-0.168218
50.0656	5482.5	-0.167223
50.2814	5508	-0.168305
50.4965	5533.5	-0.168641
50.7109	5559	-0.16894
50.9255	5584.5	-0.168003
51.1408	5610	-0.168722
51.3559	5635.5	-0.171548
51.5714	5661	-0.171649
51.7869	5686.5	-0.173094
52.0019	5712	-0.171396
52.2168	5737.5	-0.172424
52.4309	5763	-0.172724
52.646	5788.5	-0.173098
52.8608	5814	-0.172057
53.0764	5839.5	-0.172178
53.2924	5865	-0.172771
53.5072	5890.5	-0.172729
53.7223	5916	-0.173739
53.9371	5941.5	-0.174513
54.1516	5967	-0.175415
54.3662	5992.5	-0.173924
54.5815	6018	-0.173631
54.7971	6043.5	-0.174461
55.013	6069	-0.176069
55.2273	6094.5	-0.174746
55.4426	6120	-0.177711
55.6572	6145.5	-0.173313
55.8718	6171	-0.177887
56.0869	6196.5	-0.177958
56.302	6222	-0.176836
56.5179	6247.5	-0.176167
56.7331	6273	-0.177414
56.9485	6298.5	-0.177234
57.1628	6324	-0.177398
57.3777	6349.5	-0.178952
57.5927	6375	-0.17982
57.8074	6400.5	-0.180039
58.0227	6426	-0.179228
58.2389	6451.5	-0.179755
58.4535	6477	-0.179415
58.6685	6502.5	-0.180898
58.8836	6528	-0.181208
59.0982	6553.5	-0.181537
59.3133	6579	-0.180532
59.5289	6604.5	-0.180357
59.7439	6630	-0.181787
59.9595	6655.5	-0.181865
60.1743	6681	-0.181944
60.3883	6706.5	-0.181824
60.6034	6732	-0.183597
60.8181	6757.5	-0.182488
61.0336	6783	-0.184009
61.2488	6808.5	-0.183225
61.4648	6834	-0.184441
61.6792	6859.5	-0.182974
61.8939	6885	-0.182678
62.108	6910.5	-0.183516
62.3242	6936	-0.184553
62.5393	6961.5	-0.186579
62.7544	6987	-0.184882
62.9699	7012.5	-0.184157
63.1846	7038	-0.186381
63.3993	7063.5	-0.186448
63.6142	7089	-0.187738
63.8293	7114.5	-0.187698
64.045	7140	-0.187497
64.2599	7165.5	-0.186937
64.4752	7191	-0.188605
64.5504	7200	-0.18752