File: rawdata/empty_3
empty
Furnace temperature 	Time	HeatFlow
/°C	/s	/mW
64.8078	0	-0.186439
66.7779	10.5	-0.202832
67.8794	21	-0.308489
67.8337	31.5	-0.449924
67.8377	42	-0.589224
67.739	52.5	-0.712428
67.6178	63	-0.805821
67.4715	73.5	-0.866801
67.312	84	-0.897228
67.1395	94.5	-0.897253
66.9595	105	-0.87753
66.7728	115.5	-0.837062
66.5812	126	-0.784801
66.3853	136.5	-0.722882
66.1863	147	-0.652489
65.9845	157.5	-0.582454
65.9013	168	-0.508152
65.6917	178.5	-0.435018
65.5074	189	-0.367409
65.3084	199.5	-0.299527
65.1021	210	-0.239516
64.893	220.5	-0.174909
64.6819	231	-0.118878
64.4658	241.5	-0.0662885
64.2513	252	-0.0216132
64.0335	262.5	0.017326
63.8165	273	0.0533573
63.5974	283.5	0.0854877
63.3799	294	0.113373
63.1607	304.5	0.141755
62.9414	315	0.167459
62.7234	325.5	0.18673
62.5042	336	0.20395
62.2869	346.5	0.218415
62.0677	357	0.231026
61.8507	367.5	0.243516
61.6322	378	0.252362
61.416	388.5	0.262026
61.1981	399	0.271567
60.9823	409.5	0.278763
60.7651	420	0.2843
60.5488	430.5	0.2887896
60.3329	441	0.28943
60.1164	451.5	0.294757
59.902	462	0.299417
59.6854	472.5	0.302179
59.4707	483	0.301776
59.255	493.5	0.304831
59.041	504	0.304393
58.8257	514.5	0.3001329
58.6114	525	0.305748
58.3969	535.5	0.308538
58.1839	546	0.3077223
57.9683	556.5	0.30406
57.7552	567	0.305657
57.5406	577.5	0.305768
57.3274	588	0.304047
57.113	598.5	0.305574
56.8998	609	0.304652
56.6857	619.5	0.302677
56.4724	630	0.298431
56.2592	640.5	0.300144
56.0451	651	0.295823
55.8329	661.5	0.301609
55.6193	672	0.298398
55.4061	682.5	0.296786
55.1922	693	0.298376
54.9803	703.5	0.294545
54.7662	714	0.288509
54.554	724.5	0.290192
54.3404	735	0.291748
54.128	745.5	0.289097
53.9138	756	0.2878308
53.7022	766.5	0.288715
53.4894	777	0.284896
53.2761	787.5	0.284524
53.0626	798	0.283458
52.8511	808.5	0.280493
52.6379	819	0.281582
52.4257	829.5	0.280972
52.2113	840	0.276929
52.0002	850.5	0.276465
51.7867	861	0.274503
51.5747	871.5	0.27574
51.3611	882	0.273686
51.1491	892.5	0.270479
50.9364	903	0.267582
50.7242	913.5	0.268582
50.5111	924	0.26627
50.2989	934.5	0.265514
50.086	945	0.261624
49.8725	955.5	0.259529
49.6608	966	0.261998
49.4479	976.5	0.261425
49.2359	987	0.258889
49.0228	997.5	0.255966
48.8102	1008	0.253116
48.5973	1018.5	0.259778
48.3848	1029	0.257203
48.1722	1039.5	0.254572
47.9603	1050	0.252179
47.7474	1060.5	0.251606
47.535	1071	0.250259
47.3221	1081.5	0.250385
47.1097	1092	0.249075
46.8973	1102.5	0.242811
46.684	1113	0.243452
46.472	1123.5	0.242508
46.2595	1134	0.241417
46.0473	1144.5	0.239182
45.834	1155	0.239972
45.6224	1165.5	0.240284
45.4088	1176	0.237179
45.1977	1186.5	0.233999
44.9838	1197	0.230743
44.7714	1207.5	0.233789
44.5586	1218	0.227517
44.3465	1228.5	0.227809
44.134	1239	0.225677
43.9222	1249.5	0.226135
43.7098	1260	0.225298
43.4958	1270.5	0.223998
43.284	1281	0.225274
43.0713	1291.5	0.221209
42.8599	1302	0.218015
42.6462	1312.5	0.218697
42.4342	1323	0.216855
42.2215	1333.5	0.216683
42.01	1344	0.216197
41.7961	1354.5	0.211787
41.5852	1365	0.214554
41.3712	1375.5	0.211387
41.1594	1386	0.211551
40.9469	1396.5	0.209759
40.7348	1407	0.207407
40.5222	1417.5	0.207235
40.3083	1428	0.202271
40.0975	1438.5	0.20413
39.8851	1449	0.201027
39.6721	1459.5	0.200089
39.4598	1470	0.201333
39.2471	1480.5	0.197125
39.035	1491	0.19551
38.8217	1501.5	0.195953
38.6095	1512	0.19531
38.3979	1522.5	0.189763
38.1848	1533	0.192358
37.9729	1543.5	0.191208
37.7599	1554	0.18914
37.5482	1564.5	0.1878943
37.3358	1575	0.183834
37.1224	1585.5	0.184369
36.9105	1596	0.185882
36.6974	1606.5	0.182849
36.4852	1617	0.179382
36.2732	1627.5	0.179636
36.0609	1638	0.177293
35.8484	1648.5	0.177471
35.6363	1659	0.179326
35.4233	1669.5	0.172666
35.2116	1680	0.173258
34.9986	1690.5	0.169946
34.7878	1701	0.172143
34.5741	1711.5	0.168639
34.3628	1722	0.171442
34.1492	1732.5	0.17162
33.9372	1743	0.170117
33.725	1753.5	0.17039
33.5125	1764	0.165932
33.2996	1774.5	0.162663
33.0878	1785	0.161987
32.8751	1795.5	0.15968
32.6632	1806	0.159837
32.4507	1816.5	0.158096
32.2386	1827	0.154247
32.0261	1837.5	0.156225
31.8134	1848	0.152505
31.6018	1858.5	0.150511
31.3883	1869	0.150703
31.1771	1879.5	0.149639
30.9641	1890	0.147603
30.752	1900.5	0.14791
30.5402	1911	0.14875
30.3271	1921.5	0.142744
30.1145	1932	0.14635
29.9024	1942.5	0.145569
29.6922	1953	0.145856
29.4776	1963.5	0.138728
29.2666	1974	0.140563
29.0537	1984.5	0.138208
28.8412	1995	0.135986
28.6289	2005.5	0.13652
28.4172	2016	0.137935
28.2051	2026.5	0.135288
27.9919	2037	0.134537
27.7803	2047.5	0.132327
27.5676	2058	0.130037
27.3548	2068.5	0.129072
27.1426	2079	0.127356
26.9311	2089.5	0.124098
26.7188	2100	0.122185
26.5067	2110.5	0.122562
26.2946	2121	0.118276
26.0819	2131.5	0.119635
25.8706	2142	0.119259
25.6571	2152.5	0.117396
25.4452	2163	0.115493
25.2332	2173.5	0.116758
25.0211	2184	0.11433
24.8085	2194.5	0.111571
24.5972	2205	0.109042
24.3848	2215.5	0.108156
24.1721	2226	0.106591
23.9597	2236.5	0.10452
23.7478	2247	0.104077
23.5359	2257.5	0.105206
23.3239	2268	0.100625
23.1118	2278.5	0.0992458
22.8998	2289	0.0980988
22.688	2299.5	0.0963278
22.4749	2310	0.0975151
22.2643	2320.5	0.0942414
22.0515	2331	0.09170492
21.8402	2341.5	0.0893407
21.6277	2352	0.0873253
21.4146	2362.5	0.0863432
21.2027	2373	0.0842847
20.9915	2383.5	0.0860571
20.779	2394	0.0837229
20.5665	2404.5	0.0824034
20.3553	2415	0.0825324
20.143	2425.5	0.0793486
19.9319	2436	0.0801236
19.719	2446.5	0.0755995
19.5076	2457	0.0746252
19.2957	2467.5	0.0724115
19.0838	2478	0.0705686
18.8705	2488.5	0.07035695
18.66	2499	0.0689246
18.4476	2509.5	0.069638
18.2359	2520	0.068598
18.0246	2530.5	0.0656623
17.8138	2541	0.0634731
17.5999	2551.5	0.0624074
17.3874	2562	0.0611823
17.1775	2572.5	0.058927
16.9651	2583	0.0583314
16.7538	2593.5	0.0543881
16.5418	2604	0.0538881
16.3299	2614.5	0.0530307
16.1188	2625	0.050763
15.9064	2635.5	0.0483733
15.6958	2646	0.0489811
15.4842	2656.5	0.0479991
15.2725	2667	0.0454043
15.0608	2677.5	0.0435625
14.8494	2688	0.0420372
14.6385	2698.5	0.0399118
14.4265	2709	0.0413147
14.2152	2719.5	0.0389463
14.0048	2730	0.0374341
13.7935	2740.5	0.0362397
13.5818	2751	0.0341435
13.3714	2761.5	0.0329054
13.1596	2772	0.0309846
12.9495	2782.5	0.0310254
12.7396	2793	0.0264132
12.5283	2803.5	0.0254074
12.3182	2814	0.0244604
12.1077	2824.5	0.0262251
11.8975	2835	0.0246341
11.6865	2845.5	0.0243288
11.4772	2856	0.0219891
11.2678	2866.5	0.0213792
11.0576	2877	0.0221799
10.8491	2887.5	0.02360733
10.6397	2898	0.020534
10.4302	2908.5	0.02127531
10.2207	2919	0.0190249
10.0113	2929.5	0.0238927
9.80275	2940	0.0269448
9.595	2950.5	0.0314796
9.38702	2961	0.0341348
9.17915	2971.5	0.0380708
8.972	2982	0.0439393
8.76522	2992.5	0.04916428
8.62687	2999.5	0.0539373