File: rawdata/empty_4
empty
Furnace temperature 	Time	HeatFlow
/°C	/s	/mW
7.69487	0	0.0572434
5.97441	25.5	0.0735984
5.24855	51	0.159232
5.01239	76.5	0.399093
4.98255	102	0.668065
5.05729	127.5	0.830364
5.19225	153	0.856702
5.10716	178.5	0.783563
5.18856	204	0.654572
5.38067	229.5	0.50907
5.61455	255	0.370518
5.86674	280.5	0.248721
6.1229	306	0.150043
6.37874	331.5	0.0732072
6.63105	357	0.0152547
6.87807	382.5	-0.02712328
7.1206	408	-0.0576866
7.36287	433.5	-0.0799213
7.59596	459	-0.0945899
7.82719	484.5	-0.103797
8.05554	510	-0.109782
8.28163	535.5	-0.112251
8.50524	561	-0.112252
8.7271	586.5	-0.111313
8.94789	612	-0.109475
9.1673	637.5	-0.10724
9.38653	663	-0.106207
9.60533	688.5	-0.103339
9.8237	714	-0.101573
10.0411	739.5	-0.100128
10.2574	765	-0.0984064
10.4738	790.5	-0.0968665
10.69	816	-0.0963634
10.9067	841.5	-0.096259
11.1235	867	-0.0950818
11.3397	892.5	-0.0948594
11.5553	918	-0.0945183
11.7706	943.5	-0.0945547
11.9864	969	-0.0931445
12.2022	994.5	-0.0930435
12.4181	1020	-0.0934969
12.634	1045.5	-0.0927234
12.8492	1071	-0.0938289
13.0646	1096.5	-0.09329357
13.2801	1122	-0.0931935
13.4952	1147.5	-0.0927386
13.7113	1173	-0.0933884
13.9268	1198.5	-0.0934857
14.142	1224	-0.0942918
14.3572	1249.5	-0.09383779
14.572	1275	-0.0939941
14.7873	1300.5	-0.0941308
15.0025	1326	-0.0950334
15.219	1351.5	-0.0950124
15.4342	1377	-0.0953642
15.6495	1402.5	-0.09493167
15.8641	1428	-0.0952443
16.0784	1453.5	-0.09559606
16.2949	1479	-0.0953018
16.5099	1504.5	-0.09506648
16.7258	1530	-0.0961212
16.9411	1555.5	-0.0964327
17.156	1581	-0.0963343
17.3705	1606.5	-0.0967822
17.5857	1632	-0.0971714
17.8005	1657.5	-0.0978525
18.0161	1683	-0.0980655
18.2313	1708.5	-0.0976556
18.4468	1734	-0.0981799
18.6625	1759.5	-0.09775155
18.8773	1785	-0.0982756
19.0918	1810.5	-0.0987991
19.3068	1836	-0.0987014
19.5225	1861.5	-0.0988945
19.7378	1887	-0.0993396
19.9533	1912.5	-0.0995714
20.1683	1938	-0.100461
20.3831	1963.5	-0.100808
20.5977	1989	-0.101039
20.8129	2014.5	-0.101831
21.0289	2040	-0.101211
21.2446	2065.5	-0.102156
21.4596	2091	-0.103004
21.6744	2116.5	-0.103118
21.8891	2142	-0.104369
22.104	2167.5	-0.104001
22.3192	2193	-0.105193
22.5348	2218.5	-0.105652
22.75	2244	-0.106592
22.9657	2269.5	-0.107166
23.1804	2295	-0.106626
23.3955	2320.5	-0.107641
23.6101	2346	-0.108712
23.8252	2371.5	-0.108269
24.0403	2397	-0.10817
24.2562	2422.5	-0.107709
24.4715	2448	-0.1092
24.6868	2473.5	-0.110115
24.9009	2499	-0.111049
25.1156	2524.5	-0.110932
25.3311	2550	-0.111425
25.5464	2575.5	-0.1117469
25.7622	2601	-0.112202
25.9772	2626.5	-0.112123
26.1924	2652	-0.113988
26.4068	2677.5	-0.115451
26.6215	2703	-0.114781
26.8366	2728.5	-0.115405
27.0522	2754	-0.115649
27.2681	2779.5	-0.114942
27.4831	2805	-0.116972
27.6979	2830.5	-0.117177
27.9122	2856	-0.118369
28.127	2881.5	-0.11808
28.3426	2907	-0.117736
28.5585	2932.5	-0.119778
28.7736	2958	-0.119453
28.9888	2983.5	-0.120509
29.2037	3009	-0.120751
29.4184	3034.5	-0.12156
29.633	3060	-0.122217
29.8479	3085.5	-0.123536
30.0635	3111	-0.124305
30.2791	3136.5	-0.123301
30.4943	3162	-0.124749
30.7095	3187.5	-0.125084
30.924	3213	-0.126718
31.1384	3238.5	-0.125264
31.3541	3264	-0.12573
31.5694	3289.5	-0.127401
31.7847	3315	-0.127134
32.0002	3340.5	-0.127449
32.215	3366	-0.128009
32.43	3391.5	-0.129244
32.6444	3417	-0.129484
32.86	3442.5	-0.129254
33.0752	3468	-0.130338
33.2905	3493.5	-0.131497
33.5055	3519	-0.132241
33.7207	3544.5	-0.132687
33.935	3570	-0.133599
34.15	3595.5	-0.132435
34.3647	3621	-0.134002
34.5805	3646.5	-0.134578
34.7965	3672	-0.135788
35.0114	3697.5	-0.135261
35.2266	3723	-0.135294
35.4406	3748.5	-0.135571
35.6552	3774	-0.136295
35.8707	3799.5	-0.138212
36.0868	3825	-0.137984
36.3018	3850.5	-0.138558
36.5165	3876	-0.139504
36.7309	3901.5	-0.13976
36.9459	3927	-0.139887
37.1612	3952.5	-0.140405
37.377	3978	-0.140829
37.592	4003.5	-0.141848
37.8073	4029	-0.142625
38.0214	4054.5	-0.141897
38.2366	4080	-0.142674
38.4515	4105.5	-0.142746
38.6668	4131	-0.143893
38.8816	4156.5	-0.143316
39.0977	4182	-0.143295
39.3124	4207.5	-0.145127
39.5275	4233	-0.145699
39.7418	4258.5	-0.146566
39.9569	4284	-0.145362
40.1721	4309.5	-0.147746
40.388	4335	-0.147319
40.603	4360.5	-0.147502
40.8181	4386	-0.147002
41.0328	4411.5	-0.147925
41.2473	4437	-0.147408
41.4628	4462.5	-0.14975
41.678	4488	-0.151059
41.8932	4513.5	-0.149694
42.1088	4539	-0.15091
42.3233	4564.5	-0.151168
42.5381	4590	-0.151205
42.753	4615.5	-0.151536
42.9687	4641	-0.152291
43.184	4666.5	-0.153745
43.3992	4692	-0.153745
43.6142	4717.5	-0.154408
43.8284	4743	-0.153784
44.0435	4768.5	-0.153272
44.259	4794	-0.15421
44.4744	4819.5	-0.153882
44.6902	4845	-0.15548
44.9041	4870.5	-0.155648
45.1182	4896	-0.15554
45.3341	4921.5	-0.15646
45.549	4947	-0.157233
45.7647	4972.5	-0.157712
45.9801	4998	-0.157898
46.1941	5023.5	-0.159147
46.4095	5049	-0.15948
46.6239	5074.5	-0.159593
46.8396	5100	-0.160037
47.0554	5125.5	-0.159529
47.2706	5151	-0.16202
47.4851	5176.5	-0.16175
47.6998	5202	-0.161992
47.9146	5227.5	-0.161724
48.1297	5253	-0.161857
48.3452	5278.5	-0.159692
48.5602	5304	-0.162727
48.7757	5329.5	-0.161804
48.9904	5355	-0.162595
49.205	5380.5	-0.162821
49.4194	5406	-0.164742
49.6347	5431.5	-0.165077
49.8507	5457	-0.16483
50.0656	5482.5	-0.16482
50.2814	5508	-0.166685
50.4965	5533.5	-0.164274
50.7109	5559	-0.165993
50.9255	5584.5	-0.167149
51.1408	5610	-0.167195
51.3559	5635.5	-0.167677
51.5714	5661	-0.168432
51.7869	5686.5	-0.167807
52.0019	5712	-0.168454
52.2168	5737.5	-0.168883
52.4309	5763	-0.167043
52.646	5788.5	-0.170086
52.8608	5814	-0.169971
53.0764	5839.5	-0.168586
53.2924	5865	-0.170866
53.5072	5890.5	-0.171696
53.7223	5916	-0.170585
53.9371	5941.5	-0.171596
54.1516	5967	-0.171483
54.3662	5992.5	-0.171969
54.5815	6018	-0.172744
54.7971	6043.5	-0.173719
55.013	6069	-0.172883
55.2273	6094.5	-0.173967
55.4426	6120	-0.172753
55.6572	6145.5	-0.175483
55.8718	6171	-0.174144
56.0869	6196.5	-0.17653
56.302	6222	-0.174089
56.5179	6247.5	-0.174649
56.7331	6273	-0.176547
56.9485	6298.5	-0.17933
57.1628	6324	-0.177542
57.3777	6349.5	-0.177634
57.5927	6375	-0.177563
57.8074	6400.5	-0.178522
58.0227	6426	-0.178218
58.2389	6451.5	-0.177842
58.4535	6477	-0.17734
58.6685	6502.5	-0.178282
58.8836	6528	-0.178936
59.0982	6553.5	-0.178399
59.3133	6579	-0.178567
59.5289	6604.5	-0.178735
59.7439	6630	-0.180795
59.9595	6655.5	-0.179468
60.1743	6681	-0.181439
60.3883	6706.5	-0.181338
60.6034	6732	-0.181598
60.8181	6757.5	-0.183569
61.0336	6783	-0.180948
61.2488	6808.5	-0.182145
61.4648	6834	-0.181686
61.6792	6859.5	-0.182686
61.8939	6885	-0.18356
62.108	6910.5	-0.184344
62.3242	6936	-0.183078
62.5393	6961.5	-0.184114
62.7544	6987	-0.181842
62.9699	7012.5	-0.183455
63.1846	7038	-0.18604
63.3993	7063.5	-0.183859
63.6142	7089	-0.184862
63.8293	7114.5	-0.184624
64.045	7140	-0.186257
64.2599	7165.5	-0.185175
64.4752	7191	-0.1860715
64.5504	7200	-0.186442