File: rawdata/empty_5
empty
Furnace temperature 	Time	HeatFlow
/°C	/s	/mW
64.8078	0	-0.186906
66.7779	10.5	-0.203155
67.8794	21	-0.308166
67.8337	31.5	-0.449852
67.8377	42	-0.590087
67.739	52.5	-0.712787
67.6178	63	-0.807565
67.4715	73.5	-0.868941
67.312	84	-0.898541
67.1395	94.5	-0.902469
66.9595	105	-0.884114
66.7728	115.5	-0.84165
66.5812	126	-0.788382
66.3853	136.5	-0.725401
66.1863	147	-0.65526
65.9845	157.5	-0.582149
65.9013	168	-0.507288
65.6917	178.5	-0.440636
65.5074	189	-0.367733
65.3084	199.5	-0.304715
65.1021	210	-0.236219
64.893	220.5	-0.178044
64.6819	231	-0.118571
64.4658	241.5	-0.0680728
64.2513	252	-0.0193058
64.0335	262.5	0.0194714
63.8165	273	0.0577211
63.5974	283.5	0.090736
63.3799	294	0.118766
63.1607	304.5	0.144443
62.9414	315	0.165979
62.7234	325.5	0.18821
62.5042	336	0.206947
62.2869	346.5	0.223146
62.0677	357	0.234331
61.8507	367.5	0.250127
61.6322	378	0.256771
61.416	388.5	0.264989
61.1981	399	0.272778
60.9823	409.5	0.283608
60.7651	420	0.288766
60.5488	430.5	0.293817
60.3329	441	0.29757
60.1164	451.5	0.292206
59.902	462	0.296667
59.6854	472.5	0.30256
59.4707	483	0.307298
59.255	493.5	0.306389
59.041	504	0.308143
58.8257	514.5	0.313576
58.6114	525	0.310422
58.3969	535.5	0.309263
58.1839	546	0.31104
57.9683	556.5	0.310371
57.7552	567	0.30767
57.5406	577.5	0.307981
57.3274	588	0.307295
57.113	598.5	0.308896
56.8998	609	0.305306
56.6857	619.5	0.303985
56.4724	630	0.304135
56.2592	640.5	0.301633
56.0451	651	0.302675
55.8329	661.5	0.301537
55.6193	672	0.304744
55.4061	682.5	0.299914
55.1922	693	0.302034
54.9803	703.5	0.297638
54.7662	714	0.295736
54.554	724.5	0.295144
54.3404	735	0.291529
54.128	745.5	0.292067
53.9138	756	0.290018
53.7022	766.5	0.291923
53.4894	777	0.293577
53.2761	787.5	0.291783
53.0626	798	0.287435
52.8511	808.5	0.28471
52.6379	819	0.286109
52.4257	829.5	0.278361
52.2113	840	0.285186
52.0002	850.5	0.277635
51.7867	861	0.282217
51.5747	871.5	0.279105
51.3611	882	0.278771
51.1491	892.5	0.277359
50.9364	903	0.272908
50.7242	913.5	0.270926
50.5111	924	0.273669
50.2989	934.5	0.269123
50.086	945	0.271537
49.8725	955.5	0.268713
49.6608	966	0.264235
49.4479	976.5	0.26702
49.2359	987	0.259935
49.0228	997.5	0.25861
48.8102	1008	0.262186
48.5973	1018.5	0.260659
48.3848	1029	0.258324
48.1722	1039.5	0.258891
47.9603	1050	0.260122
47.7474	1060.5	0.252084
47.535	1071	0.2560184
47.3221	1081.5	0.253661
47.1097	1092	0.251709
46.8973	1102.5	0.252517
46.684	1113	0.250029
46.472	1123.5	0.247872
46.2595	1134	0.246027
46.0473	1144.5	0.245085
45.834	1155	0.241633
45.6224	1165.5	0.241004
45.4088	1176	0.242147
45.1977	1186.5	0.237879
44.9838	1197	0.238948
44.7714	1207.5	0.237099
44.5586	1218	0.234805
44.3465	1228.5	0.231713
44.134	1239	0.231581
43.9222	1249.5	0.232728
43.7098	1260	0.232412
43.4958	1270.5	0.228927
43.284	1281	0.227462
43.0713	1291.5	0.228832
42.8599	1302	0.223526
42.6462	1312.5	0.224989
42.4342	1323	0.22432
42.2215	1333.5	0.220604
42.01	1344	0.220843
41.7961	1354.5	0.216473
41.5852	1365	0.217344
41.3712	1375.5	0.213881
41.1594	1386	0.215553
40.9469	1396.5	0.214509
40.7348	1407	0.213351
40.5222	1417.5	0.209472
40.3083	1428	0.207641
40.0975	1438.5	0.207097
39.8851	1449	0.202072
39.6721	1459.5	0.209312
39.4598	1470	0.2052
39.2471	1480.5	0.201647
39.035	1491	0.1991
38.8217	1501.5	0.20089
38.6095	1512	0.198192
38.3979	1522.5	0.19581
38.1848	1533	0.195242
37.9729	1543.5	0.195181
37.7599	1554	0.19377
37.5482	1564.5	0.195415
37.3358	1575	0.191002
37.1224	1585.5	0.194075
36.9105	1596	0.1877224
36.6974	1606.5	0.18471
36.4852	1617	0.185417
36.2732	1627.5	0.184902
36.0609	1638	0.185083
35.8484	1648.5	0.183948
35.6363	1659	0.182283
35.4233	1669.5	0.178583
35.2116	1680	0.178217
34.9986	1690.5	0.179774
34.7878	1701	0.176558
34.5741	1711.5	0.178324
34.3628	1722	0.176183
34.1492	1732.5	0.172452
33.9372	1743	0.173539
33.725	1753.5	0.171525
33.5125	1764	0.169964
33.2996	1774.5	0.166129
33.0878	1785	0.164242
32.8751	1795.5	0.164211
32.6632	1806	0.164559
32.4507	1816.5	0.163675
32.2386	1827	0.161062
32.0261	1837.5	0.160043
31.8134	1848	0.160315
31.6018	1858.5	0.158877
31.3883	1869	0.157342
31.1771	1879.5	0.155806
30.9641	1890	0.152917
30.752	1900.5	0.152502
30.5402	1911	0.152581
30.3271	1921.5	0.149496
30.1145	1932	0.149308
29.9024	1942.5	0.145454
29.6922	1953	0.14578
29.4776	1963.5	0.145476
29.2666	1974	0.144827
29.0537	1984.5	0.142341
28.8412	1995	0.138762
28.6289	2005.5	0.139297
28.4172	2016	0.136517
28.2051	2026.5	0.135135
27.9919	2037	0.134115
27.7803	2047.5	0.132404
27.5676	2058	0.130153
27.3548	2068.5	0.131224
27.1426	2079	0.129394
26.9311	2089.5	0.129601
26.7188	2100	0.126401
26.5067	2110.5	0.123236
26.2946	2121	0.12319
26.0819	2131.5	0.12272
25.8706	2142	0.120012
25.6571	2152.5	0.121335
25.4452	2163	0.116633
25.2332	2173.5	0.114787
25.0211	2184	0.113189
24.8085	2194.5	0.113216
24.5972	2205	0.109817
24.3848	2215.5	0.107885
24.1721	2226	0.107754
23.9597	2236.5	0.107313
23.7478	2247	0.106387
23.5359	2257.5	0.103478
23.3239	2268	0.102043
23.1118	2278.5	0.10084
22.8998	2289	0.0989355
22.688	2299.5	0.0978268
22.4749	2310	0.09675581
22.2643	2320.5	0.0959951
22.0515	2331	0.0955853
21.8402	2341.5	0.0937505
21.6277	2352	0.09212824
21.4146	2362.5	0.0908951
21.2027	2373	0.0870213
20.9915	2383.5	0.0877789
20.779	2394	0.08475998
20.5665	2404.5	0.0828151
20.3553	2415	0.0824348
20.143	2425.5	0.0803485
19.9319	2436	0.0777106
19.719	2446.5	0.0753447
19.5076	2457	0.0738788
19.2957	2467.5	0.0759889
19.0838	2478	0.07300768
18.8705	2488.5	0.0714595
18.66	2499	0.0704215
18.4476	2509.5	0.0685744
18.2359	2520	0.0670206
18.0246	2530.5	0.0630185
17.8138	2541	0.0619727
17.5999	2551.5	0.0626644
17.3874	2562	0.05788118
17.1775	2572.5	0.0564544
16.9651	2583	0.0550655
16.7538	2593.5	0.0530018
16.5418	2604	0.0541261
16.3299	2614.5	0.0518805
16.1188	2625	0.0502472
15.9064	2635.5	0.0481551
15.6958	2646	0.0446893
15.4842	2656.5	0.0433266
15.2725	2667	0.0400323
15.0608	2677.5	0.0396405
14.8494	2688	0.0386107
14.6385	2698.5	0.0373205
14.4265	2709	0.0338538
14.2152	2719.5	0.0354333
14.0048	2730	0.0328601
13.7935	2740.5	0.0293239
13.5818	2751	0.0290233
13.3714	2761.5	0.0274414
13.1596	2772	0.0261579
12.9495	2782.5	0.0246722
12.7396	2793	0.0217807
12.5283	2803.5	0.0232001
12.3182	2814	0.0212475
12.1077	2824.5	0.02005606
11.8975	2835	0.0199087
11.6865	2845.5	0.01815125
11.4772	2856	0.01715659
11.2678	2866.5	0.0169263
11.0576	2877	0.0177845
10.8491	2887.5	0.0185835
10.6397	2898	0.0172028
10.4302	2908.5	0.0178608
10.2207	2919	0.0168415
10.0113	2929.5	0.0183498
9.80275	2940	0.0190503
9.595	2950.5	0.022547
9.38702	2961	0.0237778
9.17915	2971.5	0.027444
8.972	2982	0.0325151
8.76522	2992.5	0.0377134
8.62687	2999.5	0.0416288