File: rawdata/empty_2
empty
Furnace temperature 	Time	HeatFlow
/°C	/s	/mW
7.69487	0	-0.003844623
5.97441	25.5	0.0743644
5.24855	51	0.352858
5.01239	76.5	0.626607
4.98255	102	0.779492
5.05729	127.5	0.805572
5.19225	153	0.74342
5.10716	178.5	0.633189
5.18856	204	0.50736
5.38067	229.5	0.38664
5.61455	255	0.27829
5.86674	280.5	0.187602
6.1229	306	0.113605
6.37874	331.5	0.0575661
6.63105	357	0.0162395
6.87807	382.5	-0.0146975
7.1206	408	-0.0382461
7.36287	433.5	-0.0532567
7.59596	459	-0.0646298
7.82719	484.5	-0.0717912
8.05554	510	-0.077077
8.28163	535.5	-0.0788274
8.50524	561	-0.0805555
8.7271	586.5	-0.0807398
8.94789	612	-0.0815843
9.1673	637.5	-0.0813281
9.38653	663	-0.0809526
9.60533	688.5	-0.0801985
9.8237	714	-0.0810017
10.0411	739.5	-0.08072754
10.2574	765	-0.0803939
10.4738	790.5	-0.080658
10.69	816	-0.0812404
10.9067	841.5	-0.0810466
11.1235	867	-0.0815687
11.3397	892.5	-0.0814945
11.5553	918	-0.0815791
11.7706	943.5	-0.0830917
11.9864	969	-0.08303652
12.2022	994.5	-0.08422941
12.4181	1020	-0.0838179
12.634	1045.5	-0.0825961
12.8492	1071	-0.083807
13.0646	1096.5	-0.08533255
13.2801	1122	-0.0855139
13.4952	1147.5	-0.08607
13.7113	1173	-0.08662542
13.9268	1198.5	-0.0867865
14.142	1224	-0.0874396
14.3572	1249.5	-0.0884067
14.572	1275	-0.0896087
14.7873	1300.5	-0.0889422
15.0025	1326	-0.090064
15.219	1351.5	-0.0899481
15.4342	1377	-0.0920293
15.6495	1402.5	-0.0934614
15.8641	1428	-0.0946956
16.0784	1453.5	-0.0943818
16.2949	1479	-0.0946164
16.5099	1504.5	-0.0937948
16.7258	1530	-0.09471371
16.9411	1555.5	-0.09539739
17.156	1581	-0.0948899
17.3705	1606.5	-0.0953778
17.5857	1632	-0.0953583
17.8005	1657.5	-0.09526097
18.0161	1683	-0.0949498
18.2313	1708.5	-0.094406
18.4468	1734	-0.0945045
18.6625	1759.5	-0.0951473
18.8773	1785	-0.0942549
19.0918	1810.5	-0.0948777
19.3068	1836	-0.0947242
19.5225	1861.5	-0.09466777
19.7378	1887	-0.0955224
19.9533	1912.5	-0.0955048
20.1683	1938	-0.0950616
20.3831	1963.5	-0.0963017
20.5977	1989	-0.0971345
20.8129	2014.5	-0.0978699
21.0289	2040	-0.0956118
21.2446	2065.5	-0.09731251
21.4596	2091	-0.0973142
21.6744	2116.5	-0.0983378
21.8891	2142	-0.0985319
22.104	2167.5	-0.097821
22.3192	2193	-0.098708
22.5348	2218.5	-0.0985943
22.75	2244	-0.09953814
22.9657	2269.5	-0.100577
23.1804	2295	-0.0999258
23.3955	2320.5	-0.100791
23.6101	2346	-0.101483
23.8252	2371.5	-0.100391
24.0403	2397	-0.102424
24.2562	2422.5	-0.101487
24.4715	2448	-0.101603
24.6868	2473.5	-0.102848
24.9009	2499	-0.103098
25.1156	2524.5	-0.103997
25.3311	2550	-0.103349
25.5464	2575.5	-0.103675
25.7622	2601	-0.103944
25.9772	2626.5	-0.103411
26.1924	2652	-0.104519
26.4068	2677.5	-0.105111
26.6215	2703	-0.106597
26.8366	2728.5	-0.106788
27.0522	2754	-0.106675
27.2681	2779.5	-0.106106
27.4831	2805	-0.107115
27.6979	2830.5	-0.107743
27.9122	2856	-0.108484
28.127	2881.5	-0.108315
28.3426	2907	-0.109036
28.5585	2932.5	-0.108999
28.7736	2958	-0.10972
28.9888	2983.5	-0.109968
29.2037	3009	-0.109875
29.4184	3034.5	-0.110538
29.633	3060	-0.110993
29.8479	3085.5	-0.111845
30.0635	3111	-0.112714
30.2791	3136.5	-0.111527
30.4943	3162	-0.112321
30.7095	3187.5	-0.113548
30.924	3213	-0.114077
31.1384	3238.5	-0.114398
31.3541	3264	-0.115228
31.5694	3289.5	-0.115567
31.7847	3315	-0.115343
32.0002	3340.5	-0.11651
32.215	3366	-0.116643
32.43	3391.5	-0.116081
32.6444	3417	-0.117228
32.86	3442.5	-0.1198
33.0752	3468	-0.117906
33.2905	3493.5	-0.119651
33.5055	3519	-0.118978
33.7207	3544.5	-0.119017
33.935	3570	-0.118046
34.15	3595.5	-0.120368
34.3647	3621	-0.121642
34.5805	3646.5	-0.120821
34.7965	3672	-0.121178
35.0114	3697.5	-0.122357
35.2266	3723	-0.123049
35.4406	3748.5	-0.124376
35.6552	3774	-0.12462
35.8707	3799.5	-0.124192
36.0868	3825	-0.125499
36.3018	3850.5	-0.124942
36.5165	3876	-0.126173
36.7309	3901.5	-0.126976
36.9459	3927	-0.127703
37.1612	3952.5	-0.129062
37.377	3978	-0.128933
37.592	4003.5	-0.129289
37.8073	4029	-0.130275
38.0214	4054.5	-0.130704
38.2366	4080	-0.131485
38.4515	4105.5	-0.131246
38.6668	4131	-0.133251
38.8816	4156.5	-0.132548
39.0977	4182	-0.131939
39.3124	4207.5	-0.13122
39.5275	4233	-0.133667
39.7418	4258.5	-0.134428
39.9569	4284	-0.13469
40.1721	4309.5	-0.135672
40.388	4335	-0.137098
40.603	4360.5	-0.136473
40.8181	4386	-0.13703
41.0328	4411.5	-0.136553
41.2473	4437	-0.138734
41.4628	4462.5	-0.138645
41.678	4488	-0.139976
41.8932	4513.5	-0.139611
42.1088	4539	-0.139983
42.3233	4564.5	-0.140558
42.5381	4590	-0.141611
42.753	4615.5	-0.141578
42.9687	4641	-0.141785
43.184	4666.5	-0.142433
43.3992	4692	-0.143651
43.6142	4717.5	-0.143509
43.8284	4743	-0.144395
44.0435	4768.5	-0.1453
44.259	4794	-0.144736
44.4744	4819.5	-0.144007
44.6902	4845	-0.146802
44.9041	4870.5	-0.146293
45.1182	4896	-0.146721
45.3341	4921.5	-0.147423
45.549	4947	-0.147466
45.7647	4972.5	-0.146923
45.9801	4998	-0.147369
46.1941	5023.5	-0.149207
46.4095	5049	-0.149927
46.6239	5074.5	-0.150245
46.8396	5100	-0.150709
47.0554	5125.5	-0.150534
47.2706	5151	-0.151419
47.4851	5176.5	-0.150477
47.6998	5202	-0.152805
47.9146	5227.5	-0.152941
48.1297	5253	-0.15304
48.3452	5278.5	-0.153907
48.5602	5304	-0.154189
48.7757	5329.5	-0.155074
48.9904	5355	-0.154846
49.205	5380.5	-0.15451
49.4194	5406	-0.154829
49.6347	5431.5	-0.157099
49.8507	5457	-0.159531
50.0656	5482.5	-0.157975
50.2814	5508	-0.157876
50.4965	5533.5	-0.15978
50.7109	5559	-0.157207
50.9255	5584.5	-0.159165
51.1408	5610	-0.160068
51.3559	5635.5	-0.160061
51.5714	5661	-0.160455
51.7869	5686.5	-0.160558
52.0019	5712	-0.159391
52.2168	5737.5	-0.159386
52.4309	5763	-0.16127
52.646	5788.5	-0.158852
52.8608	5814	-0.162133
53.0764	5839.5	-0.161095
53.2924	5865	-0.16305
53.5072	5890.5	-0.162757
53.7223	5916	-0.163516
53.9371	5941.5	-0.163912
54.1516	5967	-0.163638
54.3662	5992.5	-0.165194
54.5815	6018	-0.165808
54.7971	6043.5	-0.165535
55.013	6069	-0.164141
55.2273	6094.5	-0.166167
55.4426	6120	-0.167832
55.6572	6145.5	-0.166403
55.8718	6171	-0.167307
56.0869	6196.5	-0.167417
56.302	6222	-0.169298
56.5179	6247.5	-0.167709
56.7331	6273	-0.169499
56.9485	6298.5	-0.170929
57.1628	6324	-0.17001
57.3777	6349.5	-0.169959
57.5927	6375	-0.171749
57.8074	6400.5	-0.172095
58.0227	6426	-0.17033
58.2389	6451.5	-0.171598
58.4535	6477	-0.174074
58.6685	6502.5	-0.175125
58.8836	6528	-0.174932
59.0982	6553.5	-0.175767
59.3133	6579	-0.175159
59.5289	6604.5	-0.17659
59.7439	6630	-0.177479
59.9595	6655.5	-0.176423
60.1743	6681	-0.176646
60.3883	6706.5	-0.17842
60.6034	6732	-0.180481
60.8181	6757.5	-0.180219
61.0336	6783	-0.179633
61.2488	6808.5	-0.179858
61.4648	6834	-0.179112
61.6792	6859.5	-0.179266
61.8939	6885	-0.180789
62.108	6910.5	-0.179468
62.3242	6936	-0.181854
62.5393	6961.5	-0.183719
62.7544	6987	-0.182112
62.9699	7012.5	-0.183024
63.1846	7038	-0.184421
63.3993	7063.5	-0.185334
63.6142	7089	-0.186282
63.8293	7114.5	-0.185164
64.045	7140	-0.187209
64.2599	7165.5	-0.184942
64.4752	7191	-0.185389
64.5504	7200	-0.186047